Data from 1960PennyLincolnUp.LampE5.5.200Scan.07172019.P1.ChangedAngle_HRD10591_13-15-26-821.txt Node
Date: Thu Jul 18 13:15:26 EDT 2019
User: cochatt
Spectrometer: HR+D1059
Trigger mode: 1
Integration Time (sec): 1.000000E-1
Scans to average: 1
Electric dark correction enabled: true
Nonlinearity correction enabled: false
Boxcar width: 0
XAxis mode: Wavelengths
Number of Pixels in Spectrum: 2048
>>>>>Begin Spectral Data<<<<<
223.165	-13
223.4	-13
223.635	-13
223.869	-15
224.104	-14
224.338	-21
224.573	-11
224.808	6
225.042	-10
225.277	-14
225.511	-3
225.746	-1
225.98	5
226.215	0
226.449	7
226.683	7
226.918	39
227.152	38
227.387	35
227.621	30
227.856	38
228.09	43
228.324	57
228.559	47
228.793	58
229.027	87
229.262	98
229.496	95
229.73	114
229.964	136
230.199	120
230.433	88
230.667	92
230.901	101
231.136	104
231.37	88
231.604	105
231.838	108
232.072	101
232.306	100
232.541	118
232.775	96
233.009	96
233.243	106
233.477	103
233.711	110
233.945	107
234.179	118
234.413	119
234.647	108
234.881	102
235.115	104
235.349	101
235.583	105
235.817	107
236.051	109
236.285	120
236.519	115
236.753	117
236.987	130
237.221	162
237.455	172
237.689	152
237.922	120
238.156	124
238.39	118
238.624	124
238.858	126
239.091	127
239.325	128
239.559	115
239.793	110
240.027	121
240.26	132
240.494	114
240.728	142
240.961	136
241.195	123
241.429	131
241.662	126
241.896	116
242.13	138
242.363	139
242.597	124
242.83	123
243.064	119
243.298	127
243.531	136
243.765	122
243.998	122
244.232	119
244.465	145
244.699	145
244.932	148
245.166	155
245.399	135
245.633	138
245.866	147
246.099	140
246.333	142
246.566	140
246.8	138
247.033	143
247.266	129
247.5	141
247.733	164
247.966	159
248.2	147
248.433	167
248.666	160
248.899	152
249.133	169
249.366	183
249.599	181
249.832	182
250.066	175
250.299	170
250.532	164
250.765	181
250.998	176
251.231	205
251.465	189
251.698	174
251.931	176
252.164	179
252.397	182
252.63	173
252.863	197
253.096	202
253.329	193
253.562	192
253.795	199
254.028	213
254.261	202
254.494	213
254.727	220
254.96	235
255.193	226
255.426	212
255.659	202
255.892	202
256.124	205
256.357	206
256.59	214
256.823	202
257.056	200
257.289	201
257.521	191
257.754	201
257.987	202
258.22	204
258.452	198
258.685	188
258.918	188
259.151	181
259.383	195
259.616	197
259.849	220
260.081	222
260.314	226
260.547	227
260.779	210
261.012	207
261.244	211
261.477	223
261.71	200
261.942	200
262.175	206
262.407	214
262.64	202
262.872	213
263.105	205
263.337	213
263.57	212
263.802	198
264.035	195
264.267	215
264.499	206
264.732	211
264.964	197
265.197	212
265.429	215
265.661	213
265.894	208
266.126	221
266.358	218
266.591	211
266.823	215
267.055	207
267.287	226
267.52	215
267.752	227
267.984	226
268.216	221
268.448	217
268.681	209
268.913	229
269.145	254
269.377	250
269.609	243
269.841	236
270.073	253
270.306	260
270.538	275
270.77	265
271.002	278
271.234	265
271.466	294
271.698	278
271.93	281
272.162	281
272.394	304
272.626	271
272.858	252
273.09	255
273.322	246
273.553	250
273.785	268
274.017	259
274.249	261
274.481	261
274.713	271
274.945	265
275.176	246
275.408	256
275.64	250
275.872	248
276.104	250
276.335	264
276.567	255
276.799	261
277.031	275
277.262	280
277.494	302
277.726	281
277.957	264
278.189	252
278.421	264
278.652	286
278.884	257
279.115	260
279.347	260
279.579	268
279.81	266
280.042	268
280.273	259
280.505	257
280.736	278
280.968	253
281.199	275
281.431	269
281.662	263
281.894	269
282.125	265
282.356	274
282.588	282
282.819	289
283.051	271
283.282	280
283.513	279
283.745	254
283.976	272
284.207	276
284.439	260
284.67	277
284.901	269
285.132	272
285.364	276
285.595	278
285.826	283
286.057	257
286.288	277
286.52	274
286.751	294
286.982	284
287.213	281
287.444	280
287.675	278
287.906	286
288.138	309
288.369	282
288.6	282
288.831	293
289.062	291
289.293	280
289.524	276
289.755	278
289.986	275
290.217	287
290.448	280
290.679	277
290.91	275
291.141	290
291.371	276
291.602	302
291.833	282
292.064	265
292.295	285
292.526	288
292.757	287
292.987	303
293.218	268
293.449	275
293.68	297
293.91	268
294.141	272
294.372	291
294.603	295
294.833	296
295.064	279
295.295	300
295.525	283
295.756	301
295.987	280
296.217	319
296.448	316
296.679	296
296.909	309
297.14	313
297.37	289
297.601	307
297.831	302
298.062	311
298.292	295
298.523	307
298.753	320
298.984	310
299.214	308
299.445	316
299.675	306
299.905	312
300.136	306
300.366	298
300.597	306
300.827	316
301.057	327
301.288	319
301.518	309
301.748	313
301.979	320
302.209	331
302.439	329
302.669	323
302.9	320
303.13	303
303.36	336
303.59	334
303.82	312
304.051	328
304.281	309
304.511	323
304.741	331
304.971	314
305.201	309
305.431	327
305.661	310
305.891	336
306.121	327
306.352	320
306.582	317
306.812	345
307.042	344
307.272	320
307.502	339
307.731	327
307.961	314
308.191	324
308.421	321
308.651	334
308.881	358
309.111	338
309.341	354
309.571	350
309.8	318
310.03	362
310.26	350
310.49	355
310.72	366
310.949	384
311.179	361
311.409	347
311.639	370
311.868	363
312.098	370
312.328	356
312.557	373
312.787	361
313.017	376
313.246	360
313.476	338
313.706	354
313.935	361
314.165	364
314.394	384
314.624	383
314.853	373
315.083	368
315.312	378
315.542	378
315.771	363
316.001	370
316.23	383
316.46	364
316.689	364
316.919	351
317.148	378
317.377	363
317.607	377
317.836	376
318.065	373
318.295	377
318.524	372
318.753	360
318.983	367
319.212	362
319.441	367
319.67	374
319.9	379
320.129	364
320.358	352
320.587	365
320.816	382
321.046	372
321.275	391
321.504	364
321.733	362
321.962	403
322.191	392
322.42	412
322.649	418
322.878	413
323.108	406
323.337	423
323.566	441
323.795	462
324.024	488
324.253	572
324.482	767
324.71	1125
324.939	1517
325.168	1295
325.397	727
325.626	538
325.855	456
326.084	472
326.313	443
326.542	459
326.77	486
326.999	550
327.228	714
327.457	1030
327.686	1110
327.914	797
328.143	564
328.372	516
328.6	496
328.829	475
329.058	485
329.287	496
329.515	475
329.744	436
329.972	464
330.201	432
330.43	500
330.658	502
330.887	501
331.115	499
331.344	468
331.572	439
331.801	459
332.03	468
332.258	428
332.486	436
332.715	426
332.943	427
333.172	411
333.4	438
333.629	441
333.857	442
334.085	454
334.314	460
334.542	482
334.771	522
334.999	453
335.227	447
335.455	445
335.684	438
335.912	430
336.14	418
336.369	423
336.597	430
336.825	430
337.053	415
337.281	427
337.51	415
337.738	431
337.966	409
338.194	418
338.422	420
338.65	412
338.878	397
339.106	403
339.334	411
339.562	405
339.79	401
340.018	405
340.246	410
340.474	387
340.702	399
340.93	397
341.158	390
341.386	395
341.614	384
341.842	403
342.07	402
342.298	397
342.526	404
342.754	397
342.981	406
343.209	383
343.437	398
343.665	403
343.893	404
344.12	419
344.348	423
344.576	423
344.804	405
345.031	407
345.259	428
345.487	398
345.714	381
345.942	397
346.17	372
346.397	388
346.625	385
346.853	368
347.08	379
347.308	383
347.535	399
347.763	389
347.99	388
348.218	394
348.445	393
348.673	391
348.9	375
349.128	366
349.355	361
349.583	377
349.81	390
350.037	371
350.265	359
350.492	382
350.72	381
350.947	369
351.174	404
351.402	382
351.629	389
351.856	379
352.083	390
352.311	376
352.538	392
352.765	379
352.992	393
353.22	380
353.447	373
353.674	366
353.901	359
354.128	366
354.355	379
354.583	358
354.81	350
355.037	382
355.264	370
355.491	362
355.718	360
355.945	343
356.172	338
356.399	354
356.626	368
356.853	360
357.08	343
357.307	353
357.534	369
357.761	356
357.988	359
358.215	351
358.441	351
358.668	367
358.895	375
359.122	356
359.349	358
359.576	366
359.802	383
360.029	394
360.256	384
360.483	375
360.709	389
360.936	377
361.163	365
361.39	387
361.616	395
361.843	365
362.07	390
362.296	386
362.523	375
362.749	384
362.976	379
363.203	363
363.429	373
363.656	366
363.882	374
364.109	360
364.335	350
364.562	361
364.788	349
365.015	374
365.241	368
365.468	350
365.694	364
365.92	354
366.147	365
366.373	366
366.599	372
366.826	367
367.052	363
367.278	353
367.505	381
367.731	354
367.957	354
368.184	364
368.41	358
368.636	361
368.862	378
369.089	358
369.315	347
369.541	376
369.767	362
369.993	356
370.219	347
370.445	368
370.672	356
370.898	354
371.124	343
371.35	366
371.576	355
371.802	357
372.028	354
372.254	376
372.48	357
372.706	350
372.932	380
373.158	355
373.384	356
373.61	350
373.835	362
374.061	361
374.287	366
374.513	364
374.739	359
374.965	346
375.191	364
375.416	369
375.642	359
375.868	362
376.094	359
376.319	354
376.545	347
376.771	346
376.997	361
377.222	360
377.448	360
377.674	342
377.899	343
378.125	349
378.35	360
378.576	332
378.802	337
379.027	333
379.253	346
379.478	371
379.704	337
379.929	362
380.155	358
380.38	353
380.606	368
380.831	338
381.057	342
381.282	348
381.507	332
381.733	343
381.958	340
382.184	358
382.409	361
382.634	350
382.86	356
383.085	367
383.31	364
383.535	368
383.761	363
383.986	370
384.211	368
384.436	377
384.662	366
384.887	374
385.112	366
385.337	372
385.562	372
385.787	373
386.013	382
386.238	399
386.463	380
386.688	376
386.913	382
387.138	378
387.363	358
387.588	364
387.813	386
388.038	380
388.263	408
388.488	379
388.713	378
388.938	404
389.163	365
389.387	389
389.612	383
389.837	357
390.062	379
390.287	383
390.512	403
390.736	386
390.961	376
391.186	373
391.411	374
391.636	380
391.86	391
392.085	386
392.31	386
392.534	390
392.759	391
392.984	414
393.208	388
393.433	374
393.658	398
393.882	373
394.107	363
394.331	372
394.556	381
394.78	366
395.005	375
395.229	372
395.454	395
395.678	411
395.903	379
396.127	418
396.352	443
396.576	398
396.801	385
397.025	375
397.249	397
397.474	395
397.698	392
397.922	408
398.147	428
398.371	425
398.595	389
398.82	419
399.044	419
399.268	448
399.492	460
399.717	487
399.941	509
400.165	507
400.389	501
400.613	468
400.837	447
401.062	448
401.286	432
401.51	429
401.734	428
401.958	425
402.182	426
402.406	430
402.63	423
402.854	430
403.078	423
403.302	422
403.526	460
403.75	441
403.974	434
404.198	416
404.422	428
404.645	432
404.869	439
405.093	448
405.317	500
405.541	498
405.765	474
405.988	458
406.212	475
406.436	476
406.66	463
406.883	473
407.107	486
407.331	490
407.555	572
407.778	569
408.002	520
408.226	490
408.449	477
408.673	482
408.896	479
409.12	511
409.344	491
409.567	455
409.791	443
410.014	415
410.238	437
410.461	427
410.685	450
410.908	443
411.132	485
411.355	483
411.578	479
411.802	432
412.025	420
412.249	448
412.472	459
412.695	467
412.919	470
413.142	429
413.365	418
413.589	415
413.812	424
414.035	399
414.258	396
414.482	402
414.705	390
414.928	410
415.151	398
415.374	409
415.597	398
415.821	407
416.044	404
416.267	410
416.49	405
416.713	406
416.936	407
417.159	384
417.382	394
417.605	404
417.828	396
418.051	410
418.274	402
418.497	423
418.72	405
418.943	404
419.166	404
419.389	414
419.611	408
419.834	431
420.057	416
420.28	406
420.503	415
420.726	407
420.948	433
421.171	444
421.394	474
421.617	434
421.839	420
422.062	426
422.285	423
422.507	461
422.73	497
422.953	482
423.175	440
423.398	439
423.621	431
423.843	462
424.066	437
424.288	452
424.511	450
424.733	477
424.956	498
425.178	528
425.401	513
425.623	529
425.846	476
426.068	435
426.291	420
426.513	437
426.735	463
426.958	477
427.18	518
427.402	617
427.625	656
427.847	561
428.069	510
428.292	484
428.514	423
428.736	414
428.958	415
429.181	405
429.403	400
429.625	422
429.847	441
430.069	468
430.292	477
430.514	406
430.736	403
430.958	374
431.18	387
431.402	376
431.624	373
431.846	380
432.068	373
432.29	408
432.512	382
432.734	404
432.956	388
433.178	393
433.4	390
433.622	390
433.844	363
434.066	376
434.287	378
434.509	405
434.731	396
434.953	409
435.175	418
435.397	429
435.618	431
435.84	465
436.062	536
436.284	549
436.505	487
436.727	434
436.949	428
437.17	406
437.392	434
437.614	424
437.835	427
438.057	484
438.278	548
438.5	549
438.721	619
438.943	570
439.165	468
439.386	427
439.608	428
439.829	414
440.05	457
440.272	496
440.493	458
440.715	439
440.936	406
441.158	402
441.379	408
441.6	413
441.822	443
442.043	453
442.264	512
442.486	539
442.707	473
442.928	456
443.149	456
443.371	458
443.592	470
443.813	532
444.034	582
444.255	485
444.476	444
444.698	452
444.919	447
445.14	507
445.361	494
445.582	466
445.803	490
446.024	556
446.245	557
446.466	527
446.687	459
446.908	423
447.129	408
447.35	406
447.571	396
447.792	393
448.013	398
448.234	394
448.455	456
448.675	518
448.896	606
449.117	502
449.338	508
449.559	576
449.779	612
450	500
450.221	422
450.442	380
450.662	371
450.883	382
451.104	392
451.324	382
451.545	368
451.766	371
451.986	359
452.207	366
452.428	348
452.648	326
452.869	357
453.089	362
453.31	375
453.53	385
453.751	343
453.971	352
454.192	358
454.412	343
454.633	335
454.853	362
455.073	363
455.294	367
455.514	395
455.734	369
455.955	363
456.175	350
456.395	352
456.616	319
456.836	349
457.056	357
457.276	325
457.497	350
457.717	360
457.937	343
458.157	354
458.377	338
458.598	358
458.818	413
459.038	460
459.258	450
459.478	399
459.698	370
459.918	372
460.138	383
460.358	385
460.578	392
460.798	382
461.018	376
461.238	371
461.458	386
461.678	373
461.898	396
462.118	406
462.338	396
462.558	419
462.777	407
462.997	424
463.217	430
463.437	412
463.657	435
463.876	422
464.096	401
464.316	419
464.536	422
464.755	428
464.975	411
465.195	425
465.414	475
465.634	443
465.854	392
466.073	390
466.293	376
466.512	377
466.732	364
466.951	372
467.171	370
467.391	380
467.61	392
467.829	395
468.049	358
468.268	361
468.488	359
468.707	363
468.927	351
469.146	370
469.365	358
469.585	372
469.804	384
470.023	369
470.243	374
470.462	385
470.681	383
470.901	395
471.12	374
471.339	380
471.558	367
471.777	370
471.997	366
472.216	372
472.435	415
472.654	390
472.873	370
473.092	384
473.311	386
473.53	397
473.749	373
473.968	392
474.187	474
474.406	494
474.625	436
474.844	399
475.063	391
475.282	364
475.501	367
475.72	392
475.939	353
476.158	380
476.377	408
476.596	372
476.814	394
477.033	400
477.252	399
477.471	406
477.69	405
477.908	411
478.127	389
478.346	394
478.564	403
478.783	414
479.002	440
479.22	434
479.439	428
479.658	438
479.876	457
480.095	435
480.313	495
480.532	453
480.751	446
480.969	437
481.188	492
481.406	488
481.624	471
481.843	435
482.061	434
482.28	435
482.498	411
482.717	432
482.935	429
483.153	414
483.372	435
483.59	427
483.808	434
484.027	449
484.245	432
484.463	442
484.681	413
484.9	415
485.118	424
485.336	428
485.554	424
485.772	436
485.99	440
486.209	461
486.427	444
486.645	456
486.863	445
487.081	457
487.299	457
487.517	449
487.735	458
487.953	432
488.171	452
488.389	455
488.607	460
488.825	456
489.043	459
489.261	471
489.479	477
489.696	479
489.914	471
490.132	468
490.35	477
490.568	480
490.786	485
491.003	473
491.221	510
491.439	514
491.657	509
491.874	519
492.092	519
492.31	515
492.527	510
492.745	512
492.963	514
493.18	528
493.398	525
493.615	530
493.833	531
494.05	523
494.268	551
494.485	522
494.703	541
494.92	532
495.138	517
495.355	520
495.573	527
495.79	527
496.008	547
496.225	516
496.442	549
496.66	530
496.877	536
497.094	542
497.312	568
497.529	534
497.746	560
497.963	560
498.181	587
498.398	605
498.615	623
498.832	624
499.049	623
499.267	646
499.484	665
499.701	684
499.918	681
500.135	722
500.352	754
500.569	738
500.786	763
501.003	748
501.22	748
501.437	740
501.654	685
501.871	678
502.088	652
502.305	613
502.522	595
502.739	620
502.956	597
503.172	586
503.389	538
503.606	565
503.823	548
504.04	546
504.256	551
504.473	539
504.69	540
504.907	543
505.123	544
505.34	531
505.557	529
505.773	523
505.99	514
506.207	512
506.423	526
506.64	503
506.856	493
507.073	498
507.289	497
507.506	470
507.722	475
507.939	499
508.155	474
508.372	478
508.588	470
508.805	460
509.021	477
509.238	508
509.454	480
509.67	474
509.887	459
510.103	489
510.319	488
510.536	556
510.752	787
510.968	645
511.184	477
511.401	474
511.617	451
511.833	451
512.049	457
512.265	447
512.481	452
512.698	443
512.914	423
513.13	425
513.346	452
513.562	457
513.778	430
513.994	456
514.21	466
514.426	469
514.642	466
514.858	502
515.074	547
515.29	612
515.506	790
515.721	667
515.937	521
516.153	485
516.369	494
516.585	454
516.801	466
517.016	481
517.232	468
517.448	468
517.664	507
517.879	475
518.095	499
518.311	462
518.527	446
518.742	479
518.958	473
519.173	489
519.389	473
519.605	454
519.82	454
520.036	458
520.251	495
520.467	482
520.682	485
520.898	478
521.113	476
521.329	507
521.544	560
521.76	659
521.975	974
522.19	934
522.406	594
522.621	498
522.836	450
523.052	431
523.267	453
523.482	421
523.698	411
523.913	428
524.128	410
524.343	404
524.559	403
524.774	404
524.989	405
525.204	418
525.419	398
525.634	389
525.849	409
526.064	398
526.28	401
526.495	378
526.71	383
526.925	385
527.14	370
527.355	407
527.57	374
527.785	364
527.999	371
528.214	382
528.429	359
528.644	382
528.859	377
529.074	379
529.289	398
529.503	416
529.718	420
529.933	381
530.148	383
530.363	383
530.577	370
530.792	375
531.007	390
531.221	382
531.436	369
531.651	374
531.865	374
532.08	361
532.295	347
532.509	359
532.724	366
532.938	378
533.153	364
533.367	366
533.582	365
533.796	363
534.011	366
534.225	362
534.44	359
534.654	358
534.868	374
535.083	368
535.297	382
535.511	364
535.726	368
535.94	360
536.154	363
536.369	356
536.583	371
536.797	344
537.011	361
537.225	354
537.44	360
537.654	362
537.868	344
538.082	346
538.296	351
538.51	354
538.724	360
538.938	367
539.153	349
539.367	364
539.581	368
539.795	343
540.009	359
540.222	364
540.436	366
540.65	358
540.864	347
541.078	374
541.292	360
541.506	331
541.72	350
541.934	368
542.147	356
542.361	364
542.575	362
542.789	346
543.002	366
543.216	363
543.43	351
543.644	349
543.857	365
544.071	361
544.285	366
544.498	348
544.712	343
544.925	360
545.139	342
545.352	342
545.566	338
545.779	351
545.993	335
546.206	335
546.42	356
546.633	354
546.847	324
547.06	333
547.274	327
547.487	338
547.7	341
547.914	336
548.127	331
548.34	335
548.554	343
548.767	342
548.98	351
549.193	348
549.407	343
549.62	344
549.833	328
550.046	327
550.259	340
550.473	345
550.686	309
550.899	338
551.112	340
551.325	343
551.538	334
551.751	328
551.964	314
552.177	334
552.39	339
552.603	336
552.816	340
553.029	336
553.242	347
553.455	357
553.667	358
553.88	365
554.093	347
554.306	361
554.519	359
554.732	342
554.944	319
555.157	328
555.37	333
555.583	323
555.795	323
556.008	341
556.221	317
556.433	341
556.646	323
556.859	303
557.071	306
557.284	306
557.496	322
557.709	306
557.921	313
558.134	306
558.346	307
558.559	298
558.771	302
558.984	293
559.196	311
559.409	296
559.621	305
559.833	299
560.046	303
560.258	296
560.47	295
560.683	308
560.895	304
561.107	300
561.32	291
561.532	274
561.744	302
561.956	310
562.168	312
562.381	318
562.593	304
562.805	331
563.017	310
563.229	295
563.441	295
563.653	308
563.865	323
564.077	322
564.289	292
564.501	318
564.713	308
564.925	329
565.137	341
565.349	317
565.561	326
565.773	346
565.985	325
566.197	345
566.408	352
566.62	359
566.832	370
567.044	375
567.255	381
567.467	378
567.679	390
567.891	373
568.102	394
568.314	366
568.526	359
568.737	365
568.949	350
569.161	318
569.372	331
569.584	318
569.795	316
570.007	292
570.218	341
570.43	339
570.641	309
570.853	304
571.064	303
571.276	314
571.487	280
571.698	306
571.91	298
572.121	279
572.333	291
572.544	286
572.755	278
572.966	287
573.178	273
573.389	269
573.6	282
573.811	271
574.023	277
574.234	274
574.445	283
574.656	268
574.867	256
575.078	262
575.289	262
575.501	271
575.712	266
575.923	260
576.134	254
576.345	238
576.556	266
576.767	253
576.978	265
577.188	269
577.399	284
577.61	247
577.821	249
578.032	269
578.243	286
578.454	402
578.665	305
578.875	260
579.086	250
579.297	253
579.508	261
579.718	262
579.929	251
580.14	243
580.35	249
580.561	250
580.772	219
580.982	264
581.193	255
581.403	218
581.614	239
581.825	252
582.035	248
582.246	226
582.456	245
582.667	247
582.877	228
583.087	241
583.298	242
583.508	240
583.719	222
583.929	239
584.139	248
584.35	255
584.56	232
584.77	221
584.981	233
585.191	239
585.401	229
585.611	245
585.821	253
586.032	250
586.242	214
586.452	231
586.662	226
586.872	231
587.082	251
587.292	227
587.502	217
587.713	256
587.923	245
588.133	227
588.343	242
588.553	234
588.762	221
588.972	240
589.182	274
589.392	285
589.602	248
589.812	259
590.022	266
590.232	247
590.441	247
590.651	238
590.861	244
591.071	223
591.281	234
591.49	236
591.7	235
591.91	244
592.119	245
592.329	241
592.539	248
592.748	250
592.958	263
593.167	246
593.377	262
593.587	271
593.796	263
594.006	247
594.215	262
594.424	242
594.634	243
594.843	245
595.053	260
595.262	237
595.472	222
595.681	230
595.89	229
596.1	224
596.309	248
596.518	230
596.727	223
596.937	215
597.146	225
597.355	229
597.564	220
597.774	216
597.983	231
598.192	214
598.401	207
598.61	207
598.819	208
599.028	216
599.237	218
599.446	208
599.655	214
599.864	215
600.073	210
600.282	220
600.491	212
600.7	212
600.909	218
601.118	198
601.327	221
601.536	195
601.745	205
601.953	221
602.162	215
602.371	226
602.58	207
602.789	205
602.997	208
603.206	194
603.415	202
603.623	204
603.832	210
604.041	202
604.249	215
604.458	192
604.666	215
604.875	199
605.084	197
605.292	224
605.501	205
605.709	198
605.918	199
606.126	197
606.334	196
606.543	200
606.751	207
606.96	193
607.168	208
607.376	216
607.585	197
607.793	196
608.001	189
608.21	210
608.418	211
608.626	188
608.834	200
609.043	190
609.251	194
609.459	204
609.667	204
609.875	214
610.083	198
610.291	211
610.499	200
610.707	188
610.916	198
611.124	184
611.332	215
611.54	208
611.748	204
611.955	192
612.163	204
612.371	206
612.579	190
612.787	192
612.995	207
613.203	195
613.411	197
613.618	204
613.826	202
614.034	187
614.242	182
614.449	185
614.657	191
614.865	196
615.072	200
615.28	202
615.488	187
615.695	198
615.903	194
616.111	202
616.318	192
616.526	207
616.733	194
616.941	184
617.148	187
617.356	204
617.563	177
617.771	186
617.978	187
618.185	184
618.393	188
618.6	182
618.807	193
619.015	211
619.222	191
619.429	186
619.637	190
619.844	189
620.051	178
620.258	171
620.466	193
620.673	192
620.88	191
621.087	186
621.294	198
621.501	176
621.708	176
621.915	182
622.122	195
622.329	173
622.536	187
622.743	198
622.95	177
623.157	178
623.364	179
623.571	185
623.778	178
623.985	178
624.192	178
624.399	175
624.606	186
624.812	178
625.019	173
625.226	190
625.433	184
625.639	169
625.846	172
626.053	171
626.259	180
626.466	151
626.673	178
626.879	168
627.086	179
627.293	157
627.499	177
627.706	182
627.912	166
628.119	174
628.325	162
628.532	159
628.738	169
628.945	187
629.151	180
629.357	170
629.564	173
629.77	171
629.976	156
630.183	168
630.389	166
630.595	179
630.802	166
631.008	165
631.214	166
631.42	150
631.627	173
631.833	162
632.039	156
632.245	171
632.451	150
632.657	156
632.863	165
633.069	162
633.275	160
633.481	154
633.688	156
633.893	159
634.099	177
634.305	156
634.511	175
634.717	150
634.923	174
635.129	156
635.335	154
635.541	147
635.747	146
635.952	150
636.158	156
636.364	162
636.57	162
636.775	151
636.981	157
637.187	147
637.392	157
637.598	165
637.804	154
638.009	158
638.215	144
638.421	164
638.626	156
638.832	154
639.037	175
639.243	152
639.448	157
639.654	159
639.859	153
640.065	137
640.27	132
640.475	150
640.681	142
640.886	154
641.091	151
641.297	147
641.502	141
641.707	132
641.913	140
642.118	138
642.323	141
642.528	153
642.733	148
642.939	138
643.144	138
643.349	146
643.554	147
643.759	130
643.964	151
644.169	156
644.374	154
644.579	158
644.784	142
644.989	149
645.194	142
645.399	132
645.604	143
645.809	153
646.014	133
646.219	156
646.423	139
646.628	149
646.833	148
647.038	150
647.243	139
647.447	149
647.652	158
647.857	132
648.062	149
648.266	152
648.471	142
648.676	150
648.88	138
649.085	143
649.289	157
649.494	161
649.698	157
649.903	151
650.107	147
650.312	150
650.516	143
650.721	143
650.925	153
651.13	137
651.334	125
651.539	125
651.743	142
651.947	138
652.152	126
652.356	129
652.56	120
652.764	125
652.969	136
653.173	120
653.377	119
653.581	123
653.785	119
653.99	130
654.194	130
654.398	132
654.602	114
654.806	134
655.01	135
655.214	123
655.418	133
655.622	112
655.826	121
656.03	136
656.234	138
656.438	126
656.642	129
656.846	130
657.049	120
657.253	132
657.457	116
657.661	117
657.865	107
658.068	102
658.272	111
658.476	106
658.68	107
658.883	114
659.087	106
659.291	85
659.494	95
659.698	82
659.901	99
660.105	90
660.309	98
660.512	98
660.716	104
660.919	99
661.123	81
661.326	93
661.53	87
661.733	93
661.936	87
662.14	102
662.343	91
662.546	76
662.75	87
662.953	100
663.156	78
663.36	86
663.563	83
663.766	87
663.969	91
664.173	90
664.376	91
664.579	74
664.782	79
664.985	75
665.188	80
665.391	77
665.594	83
665.797	72
666	79
666.203	90
666.406	72
666.609	94
666.812	81
667.015	84
667.218	77
667.421	91
667.624	103
667.827	80
668.03	82
668.232	83
668.435	78
668.638	71
668.841	86
669.043	90
669.246	78
669.449	70
669.651	88
669.854	96
670.057	85
670.259	82
670.462	77
670.665	93
670.867	83
671.07	84
671.272	88
671.475	89
671.677	81
671.88	87
672.082	84
672.284	89
672.487	89
672.689	76
672.892	71
