Data from 1961.PennyLincolnUp.Lamp.En5.5.200Scan.071719.P1._HRD10591_13-48-04-057.txt Node
Date: Thu Jul 18 13:48:04 EDT 2019
User: cochatt
Spectrometer: HR+D1059
Trigger mode: 1
Integration Time (sec): 1.000000E-1
Scans to average: 1
Electric dark correction enabled: true
Nonlinearity correction enabled: false
Boxcar width: 0
XAxis mode: Wavelengths
Number of Pixels in Spectrum: 2048
>>>>>Begin Spectral Data<<<<<
223.165	-28
223.4	-28
223.635	-28
223.869	-12
224.104	-12
224.338	-29
224.573	-16
224.808	5
225.042	-10
225.277	-13
225.511	2
225.746	3
225.98	5
226.215	8
226.449	20
226.683	20
226.918	29
227.152	28
227.387	30
227.621	30
227.856	58
228.09	36
228.324	31
228.559	61
228.793	68
229.027	96
229.262	106
229.496	109
229.73	138
229.964	146
230.199	109
230.433	106
230.667	107
230.901	93
231.136	101
231.37	111
231.604	100
231.838	108
232.072	112
232.306	119
232.541	123
232.775	111
233.009	99
233.243	120
233.477	102
233.711	112
233.945	113
234.179	115
234.413	99
234.647	102
234.881	115
235.115	111
235.349	107
235.583	94
235.817	116
236.051	118
236.285	120
236.519	108
236.753	122
236.987	133
237.221	164
237.455	223
237.689	173
237.922	138
238.156	138
238.39	130
238.624	122
238.858	121
239.091	124
239.325	118
239.559	120
239.793	124
240.027	140
240.26	123
240.494	146
240.728	145
240.961	117
241.195	121
241.429	144
241.662	128
241.896	122
242.13	120
242.363	132
242.597	120
242.83	133
243.064	116
243.298	109
243.531	121
243.765	107
243.998	136
244.232	137
244.465	135
244.699	124
244.932	120
245.166	135
245.399	143
245.633	114
245.866	136
246.099	145
246.333	133
246.566	142
246.8	134
247.033	137
247.266	137
247.5	141
247.733	163
247.966	159
248.2	140
248.433	161
248.666	139
248.899	166
249.133	174
249.366	189
249.599	193
249.832	166
250.066	147
250.299	167
250.532	171
250.765	178
250.998	188
251.231	175
251.465	181
251.698	188
251.931	168
252.164	170
252.397	169
252.63	183
252.863	192
253.096	190
253.329	196
253.562	190
253.795	202
254.028	182
254.261	205
254.494	197
254.727	221
254.96	228
255.193	232
255.426	220
255.659	215
255.892	186
256.124	215
256.357	204
256.59	182
256.823	177
257.056	183
257.289	167
257.521	179
257.754	189
257.987	185
258.22	182
258.452	188
258.685	175
258.918	177
259.151	172
259.383	181
259.616	194
259.849	184
260.081	203
260.314	221
260.547	232
260.779	220
261.012	206
261.244	176
261.477	196
261.71	189
261.942	207
262.175	194
262.407	215
262.64	192
262.872	188
263.105	186
263.337	179
263.57	191
263.802	192
264.035	172
264.267	167
264.499	169
264.732	192
264.964	181
265.197	165
265.429	191
265.661	181
265.894	191
266.126	187
266.358	182
266.591	184
266.823	179
267.055	184
267.287	200
267.52	198
267.752	202
267.984	198
268.216	202
268.448	187
268.681	204
268.913	203
269.145	248
269.377	235
269.609	236
269.841	233
270.073	239
270.306	252
270.538	261
270.77	270
271.002	254
271.234	247
271.466	258
271.698	266
271.93	257
272.162	274
272.394	269
272.626	249
272.858	253
273.09	253
273.322	224
273.553	229
273.785	224
274.017	221
274.249	229
274.481	212
274.713	211
274.945	218
275.176	233
275.408	237
275.64	228
275.872	200
276.104	233
276.335	230
276.567	241
276.799	248
277.031	252
277.262	263
277.494	268
277.726	259
277.957	247
278.189	243
278.421	223
278.652	223
278.884	235
279.115	226
279.347	221
279.579	228
279.81	209
280.042	225
280.273	218
280.505	226
280.736	228
280.968	217
281.199	218
281.431	205
281.662	232
281.894	227
282.125	220
282.356	232
282.588	262
282.819	262
283.051	246
283.282	228
283.513	217
283.745	227
283.976	231
284.207	236
284.439	230
284.67	227
284.901	228
285.132	229
285.364	226
285.595	231
285.826	229
286.057	229
286.288	220
286.52	228
286.751	223
286.982	236
287.213	230
287.444	222
287.675	242
287.906	251
288.138	257
288.369	234
288.6	244
288.831	251
289.062	231
289.293	230
289.524	234
289.755	242
289.986	240
290.217	235
290.448	246
290.679	236
290.91	243
291.141	249
291.371	237
291.602	230
291.833	224
292.064	254
292.295	221
292.526	224
292.757	228
292.987	218
293.218	220
293.449	244
293.68	245
293.91	233
294.141	220
294.372	231
294.603	247
294.833	239
295.064	252
295.295	245
295.525	223
295.756	251
295.987	263
296.217	283
296.448	263
296.679	259
296.909	234
297.14	250
297.37	249
297.601	240
297.831	235
298.062	244
298.292	232
298.523	258
298.753	263
298.984	247
299.214	251
299.445	260
299.675	235
299.905	255
300.136	261
300.366	264
300.597	269
300.827	253
301.057	255
301.288	273
301.518	253
301.748	276
301.979	269
302.209	251
302.439	276
302.669	274
302.9	269
303.13	277
303.36	268
303.59	264
303.82	269
304.051	281
304.281	281
304.511	272
304.741	264
304.971	273
305.201	266
305.431	264
305.661	245
305.891	273
306.121	271
306.352	260
306.582	274
306.812	260
307.042	280
307.272	270
307.502	283
307.731	276
307.961	265
308.191	291
308.421	279
308.651	278
308.881	284
309.111	288
309.341	271
309.571	291
309.8	314
310.03	328
310.26	319
310.49	312
310.72	328
310.949	334
311.179	348
311.409	326
311.639	317
311.868	319
312.098	329
312.328	324
312.557	347
312.787	345
313.017	350
313.246	336
313.476	317
313.706	319
313.935	333
314.165	335
314.394	340
314.624	336
314.853	317
315.083	319
315.312	316
315.542	305
315.771	305
316.001	304
316.23	307
316.46	308
316.689	340
316.919	330
317.148	326
317.377	333
317.607	315
317.836	330
318.065	297
318.295	309
318.524	303
318.753	314
318.983	314
319.212	323
319.441	340
319.67	342
319.9	330
320.129	311
320.358	334
320.587	349
320.816	333
321.046	343
321.275	339
321.504	345
321.733	360
321.962	352
322.191	365
322.42	379
322.649	391
322.878	415
323.108	415
323.337	443
323.566	443
323.795	483
324.024	560
324.253	674
324.482	1031
324.71	1600
324.939	2195
325.168	1827
325.397	983
325.626	650
325.855	544
326.084	469
326.313	479
326.542	467
326.77	503
326.999	625
327.228	895
327.457	1377
327.686	1632
327.914	1075
328.143	690
328.372	605
328.6	569
328.829	547
329.058	533
329.287	551
329.515	518
329.744	492
329.972	461
330.201	486
330.43	541
330.658	571
330.887	584
331.115	536
331.344	461
331.572	419
331.801	447
332.03	421
332.258	397
332.486	399
332.715	377
332.943	382
333.172	378
333.4	402
333.629	394
333.857	394
334.085	431
334.314	443
334.542	475
334.771	486
334.999	453
335.227	419
335.455	385
335.684	391
335.912	389
336.14	371
336.369	387
336.597	372
336.825	367
337.053	359
337.281	360
337.51	369
337.738	362
337.966	359
338.194	372
338.422	371
338.65	382
338.878	383
339.106	367
339.334	344
339.562	362
339.79	352
340.018	364
340.246	360
340.474	380
340.702	360
340.93	374
341.158	353
341.386	343
341.614	361
341.842	346
342.07	343
342.298	371
342.526	350
342.754	355
342.981	348
343.209	319
343.437	350
343.665	344
343.893	330
344.12	355
344.348	334
344.576	357
344.804	360
345.031	386
345.259	379
345.487	369
345.714	373
345.942	336
346.17	341
346.397	364
346.625	333
346.853	351
347.08	349
347.308	356
347.535	358
347.763	362
347.99	364
348.218	368
348.445	378
348.673	354
348.9	348
349.128	339
349.355	356
349.583	338
349.81	333
350.037	338
350.265	343
350.492	334
350.72	353
350.947	341
351.174	378
351.402	370
351.629	371
351.856	353
352.083	369
352.311	358
352.538	367
352.765	377
352.992	354
353.22	347
353.447	359
353.674	339
353.901	346
354.128	352
354.355	329
354.583	322
354.81	327
355.037	309
355.264	323
355.491	320
355.718	319
355.945	301
356.172	325
356.399	324
356.626	324
356.853	316
357.08	307
357.307	321
357.534	309
357.761	326
357.988	311
358.215	319
358.441	327
358.668	329
358.895	324
359.122	333
359.349	344
359.576	357
359.802	373
360.029	403
360.256	397
360.483	374
360.709	363
360.936	354
361.163	346
361.39	343
361.616	340
361.843	362
362.07	361
362.296	335
362.523	339
362.749	354
362.976	353
363.203	327
363.429	314
363.656	341
363.882	319
364.109	325
364.335	340
364.562	336
364.788	336
365.015	340
365.241	342
365.468	329
365.694	325
365.92	343
366.147	351
366.373	329
366.599	322
366.826	322
367.052	340
367.278	335
367.505	331
367.731	336
367.957	328
368.184	332
368.41	347
368.636	350
368.862	320
369.089	342
369.315	327
369.541	323
369.767	326
369.993	332
370.219	308
370.445	332
370.672	317
370.898	316
371.124	326
371.35	333
371.576	311
371.802	332
372.028	316
372.254	320
372.48	323
372.706	317
372.932	323
373.158	335
373.384	341
373.61	327
373.835	349
374.061	323
374.287	343
374.513	339
374.739	331
374.965	342
375.191	333
375.416	323
375.642	316
375.868	319
376.094	328
376.319	326
376.545	305
376.771	314
376.997	309
377.222	300
377.448	316
377.674	326
377.899	341
378.125	329
378.35	322
378.576	325
378.802	316
379.027	322
379.253	310
379.478	332
379.704	320
379.929	311
380.155	316
380.38	312
380.606	323
380.831	337
381.057	331
381.282	339
381.507	337
381.733	320
381.958	333
382.184	337
382.409	345
382.634	330
382.86	346
383.085	348
383.31	335
383.535	330
383.761	327
383.986	342
384.211	317
384.436	326
384.662	335
384.887	330
385.112	346
385.337	341
385.562	327
385.787	346
386.013	380
386.238	354
386.463	339
386.688	350
386.913	348
387.138	351
387.363	346
387.588	352
387.813	339
388.038	351
388.263	348
388.488	339
388.713	336
388.938	353
389.163	359
389.387	349
389.612	360
389.837	344
390.062	343
390.287	347
390.512	340
390.736	335
390.961	317
391.186	340
391.411	340
391.636	357
391.86	347
392.085	361
392.31	351
392.534	346
392.759	338
392.984	352
393.208	338
393.433	361
393.658	358
393.882	359
394.107	335
394.331	352
394.556	348
394.78	355
395.005	367
395.229	355
395.454	357
395.678	358
395.903	372
396.127	393
396.352	377
396.576	357
396.801	352
397.025	373
397.249	359
397.474	377
397.698	375
397.922	403
398.147	386
398.371	387
398.595	402
398.82	395
399.044	400
399.268	381
399.492	434
399.717	443
399.941	464
400.165	481
400.389	495
400.613	480
400.837	411
401.062	420
401.286	390
401.51	374
401.734	380
401.958	392
402.182	390
402.406	414
402.63	408
402.854	407
403.078	390
403.302	415
403.526	431
403.75	424
403.974	417
404.198	419
404.422	408
404.645	406
404.869	444
405.093	440
405.317	495
405.541	505
405.765	468
405.988	445
406.212	431
406.436	467
406.66	458
406.883	468
407.107	475
407.331	518
407.555	539
407.778	534
408.002	498
408.226	451
408.449	449
408.673	461
408.896	482
409.12	510
409.344	500
409.567	434
409.791	428
410.014	412
410.238	419
410.461	429
410.685	431
410.908	425
411.132	463
411.355	469
411.578	496
411.802	431
412.025	425
412.249	423
412.472	452
412.695	501
412.919	467
413.142	434
413.365	417
413.589	411
413.812	390
414.035	412
414.258	384
414.482	380
414.705	404
414.928	382
415.151	397
415.374	374
415.597	394
415.821	384
416.044	378
416.267	407
416.49	398
416.713	400
416.936	392
417.159	387
417.382	385
417.605	414
417.828	417
418.051	439
418.274	413
418.497	393
418.72	402
418.943	406
419.166	403
419.389	409
419.611	422
419.834	419
420.057	421
420.28	438
420.503	436
420.726	426
420.948	432
421.171	436
421.394	477
421.617	433
421.839	425
422.062	419
422.285	413
422.507	485
422.73	536
422.953	536
423.175	477
423.398	448
423.621	439
423.843	456
424.066	465
424.288	458
424.511	473
424.733	523
424.956	559
425.178	558
425.401	566
425.623	575
425.846	493
426.068	468
426.291	435
426.513	464
426.735	471
426.958	510
427.18	571
427.402	676
427.625	744
427.847	669
428.069	612
428.292	531
428.514	457
428.736	448
428.958	423
429.181	434
429.403	437
429.625	450
429.847	467
430.069	520
430.292	505
430.514	426
430.736	425
430.958	424
431.18	401
431.402	405
431.624	409
431.846	411
432.068	396
432.29	406
432.512	399
432.734	410
432.956	396
433.178	415
433.4	418
433.622	425
433.844	401
434.066	390
434.287	395
434.509	406
434.731	415
434.953	410
435.175	424
435.397	458
435.618	477
435.84	512
436.062	586
436.284	615
436.505	537
436.727	481
436.949	441
437.17	450
437.392	431
437.614	450
437.835	485
438.057	565
438.278	661
438.5	634
438.721	682
438.943	648
439.165	538
439.386	493
439.608	488
439.829	484
440.05	529
440.272	529
440.493	509
440.715	468
440.936	441
441.158	440
441.379	421
441.6	439
441.822	458
442.043	504
442.264	575
442.486	605
442.707	516
442.928	487
443.149	469
443.371	495
443.592	535
443.813	623
444.034	669
444.255	561
444.476	491
444.698	478
444.919	456
445.14	562
445.361	474
445.582	488
445.803	570
446.024	645
446.245	663
446.466	621
446.687	518
446.908	457
447.129	441
447.35	436
447.571	433
447.792	420
448.013	439
448.234	464
448.455	499
448.675	595
448.896	705
449.117	583
449.338	555
449.559	638
449.779	713
450	577
450.221	483
450.442	446
450.662	427
450.883	436
451.104	466
451.324	449
451.545	422
451.766	395
451.986	407
452.207	399
452.428	389
452.648	397
452.869	374
453.089	372
453.31	421
453.53	393
453.751	407
453.971	399
454.192	418
454.412	404
454.633	400
454.853	395
455.073	396
455.294	422
455.514	487
455.734	462
455.955	393
456.175	376
456.395	367
456.616	356
456.836	360
457.056	371
457.276	341
457.497	373
457.717	359
457.937	357
458.157	404
458.377	371
458.598	395
458.818	451
459.038	536
459.258	537
459.478	424
459.698	393
459.918	416
460.138	389
460.358	381
460.578	406
460.798	404
461.018	408
461.238	430
461.458	427
461.678	394
461.898	412
462.118	388
462.338	418
462.558	402
462.777	418
462.997	426
463.217	403
463.437	423
463.657	414
463.876	426
464.096	409
464.316	424
464.536	437
464.755	422
464.975	434
465.195	504
465.414	561
465.634	489
465.854	451
466.073	411
466.293	398
466.512	403
466.732	400
466.951	376
467.171	393
467.391	402
467.61	417
467.829	418
468.049	420
468.268	418
468.488	400
468.707	395
468.927	372
469.146	373
469.365	377
469.585	395
469.804	393
470.023	407
470.243	407
470.462	433
470.681	424
470.901	424
471.12	411
471.339	407
471.558	412
471.777	397
471.997	401
472.216	411
472.435	443
472.654	444
472.873	413
473.092	405
473.311	399
473.53	391
473.749	405
473.968	449
474.187	539
474.406	562
474.625	473
474.844	436
475.063	402
475.282	435
475.501	415
475.72	420
475.939	387
476.158	409
476.377	422
476.596	397
476.814	441
477.033	418
477.252	435
477.471	422
477.69	416
477.908	433
478.127	435
478.346	420
478.564	431
478.783	461
479.002	479
479.22	456
479.439	481
479.658	480
479.876	503
480.095	473
480.313	524
480.532	495
480.751	496
480.969	512
481.188	563
481.406	614
481.624	545
481.843	523
482.061	487
482.28	475
482.498	486
482.717	465
482.935	469
483.153	461
483.372	457
483.59	459
483.808	481
484.027	452
484.245	460
484.463	456
484.681	485
484.9	470
485.118	469
485.336	492
485.554	477
485.772	486
485.99	478
486.209	477
486.427	485
486.645	511
486.863	522
487.081	530
487.299	490
487.517	486
487.735	495
487.953	498
488.171	487
488.389	481
488.607	504
488.825	512
489.043	499
489.261	515
489.479	521
489.696	503
489.914	531
490.132	528
490.35	524
490.568	537
490.786	533
491.003	533
491.221	574
491.439	563
491.657	551
491.874	572
492.092	565
492.31	595
492.527	564
492.745	590
492.963	597
493.18	571
493.398	590
493.615	597
493.833	602
494.05	609
494.268	597
494.485	601
494.703	589
494.92	599
495.138	596
495.355	592
495.573	603
495.79	613
496.008	584
496.225	595
496.442	602
496.66	603
496.877	592
497.094	587
497.312	607
497.529	616
497.746	611
497.963	616
498.181	652
498.398	625
498.615	627
498.832	660
499.049	643
499.267	674
499.484	673
499.701	700
499.918	703
500.135	753
500.352	717
500.569	736
500.786	759
501.003	746
501.22	728
501.437	724
501.654	717
501.871	717
502.088	702
502.305	668
502.522	667
502.739	643
502.956	641
503.172	632
503.389	613
503.606	647
503.823	624
504.04	639
504.256	627
504.473	602
504.69	596
504.907	587
505.123	591
505.34	579
505.557	586
505.773	580
505.99	599
506.207	588
506.423	587
506.64	574
506.856	583
507.073	564
507.289	570
507.506	585
507.722	576
507.939	601
508.155	581
508.372	564
508.588	546
508.805	563
509.021	561
509.238	588
509.454	590
509.67	561
509.887	566
510.103	571
510.319	578
510.536	685
510.752	1193
510.968	960
511.184	623
511.401	561
511.617	551
511.833	532
512.049	549
512.265	571
512.481	547
512.698	525
512.914	529
513.13	545
513.346	518
513.562	519
513.778	550
513.994	549
514.21	576
514.426	591
514.642	619
514.858	684
515.074	724
515.29	856
515.506	1261
515.721	1033
515.937	682
516.153	603
516.369	572
516.585	600
516.801	565
517.016	561
517.232	560
517.448	544
517.664	563
517.879	537
518.095	526
518.311	546
518.527	551
518.742	516
518.958	526
519.173	560
519.389	551
519.605	529
519.82	538
520.036	559
520.251	579
520.467	601
520.682	615
520.898	632
521.113	687
521.329	695
521.544	797
521.76	1033
521.975	1749
522.19	1694
522.406	891
522.621	663
522.836	587
523.052	574
523.267	530
523.482	523
523.698	506
523.913	514
524.128	519
524.343	502
524.559	484
524.774	465
524.989	487
525.204	469
525.419	476
525.634	458
525.849	475
526.064	460
526.28	460
526.495	468
526.71	424
526.925	410
527.14	456
527.355	428
527.57	443
527.785	438
527.999	436
528.214	424
528.429	431
528.644	435
528.859	448
529.074	428
529.289	484
529.503	564
529.718	541
529.933	501
530.148	453
530.363	468
530.577	443
530.792	425
531.007	419
531.221	431
531.436	424
531.651	427
531.865	397
532.08	414
532.295	417
532.509	400
532.724	425
532.938	438
533.153	416
533.367	408
533.582	391
533.796	411
534.011	413
534.225	421
534.44	395
534.654	395
534.868	401
535.083	416
535.297	397
535.511	433
535.726	416
535.94	415
536.154	415
536.369	406
536.583	412
536.797	393
537.011	400
537.225	374
537.44	396
537.654	395
537.868	396
538.082	396
538.296	407
538.51	383
538.724	413
538.938	398
539.153	395
539.367	415
539.581	409
539.795	409
540.009	393
540.222	416
540.436	419
540.65	377
540.864	401
541.078	421
541.292	413
541.506	415
541.72	396
541.934	420
542.147	392
542.361	400
542.575	377
542.789	382
543.002	394
543.216	389
543.43	410
543.644	409
543.857	417
544.071	396
544.285	383
544.498	394
544.712	388
544.925	405
545.139	408
545.352	387
545.566	370
545.779	373
545.993	376
546.206	393
546.42	379
546.633	375
546.847	367
547.06	372
547.274	374
547.487	381
547.7	374
547.914	362
548.127	374
548.34	362
548.554	390
548.767	383
548.98	376
549.193	361
549.407	368
549.62	385
549.833	380
550.046	373
550.259	375
550.473	355
550.686	358
550.899	364
551.112	368
551.325	349
551.538	346
551.751	356
551.964	360
552.177	369
552.39	363
552.603	394
552.816	367
553.029	365
553.242	373
553.455	372
553.667	398
553.88	395
554.093	355
554.306	375
554.519	369
554.732	381
554.944	365
555.157	346
555.37	344
555.583	355
555.795	359
556.008	341
556.221	333
556.433	344
556.646	321
556.859	338
557.071	336
557.284	335
557.496	340
557.709	339
557.921	332
558.134	337
558.346	317
558.559	361
558.771	340
558.984	321
559.196	331
559.409	344
559.621	341
559.833	350
560.046	325
560.258	327
560.47	326
560.683	329
560.895	322
561.107	326
561.32	309
561.532	331
561.744	335
561.956	330
562.168	317
562.381	329
562.593	319
562.805	335
563.017	333
563.229	339
563.441	337
563.653	314
563.865	327
564.077	330
564.289	346
564.501	318
564.713	352
564.925	339
565.137	347
565.349	337
565.561	355
565.773	350
565.985	339
566.197	368
566.408	363
566.62	356
566.832	363
567.044	368
567.255	387
567.467	391
567.679	380
567.891	377
568.102	390
568.314	363
568.526	367
568.737	364
568.949	357
569.161	329
569.372	343
569.584	332
569.795	334
570.007	333
570.218	376
570.43	352
570.641	325
570.853	312
571.064	311
571.276	328
571.487	313
571.698	312
571.91	318
572.121	303
572.333	312
572.544	315
572.755	311
572.966	297
573.178	304
573.389	306
573.6	301
573.811	299
574.023	271
574.234	299
574.445	291
574.656	276
574.867	273
575.078	269
575.289	280
575.501	292
575.712	301
575.923	283
576.134	281
576.345	289
576.556	278
576.767	268
576.978	293
577.188	277
577.399	281
577.61	271
577.821	275
578.032	283
578.243	315
578.454	534
578.665	392
578.875	293
579.086	285
579.297	276
579.508	270
579.718	286
579.929	283
580.14	271
580.35	258
580.561	254
580.772	261
580.982	280
581.193	273
581.403	274
581.614	262
581.825	264
582.035	265
582.246	276
582.456	267
582.667	269
582.877	283
583.087	255
583.298	269
583.508	261
583.719	276
583.929	260
584.139	264
584.35	250
584.56	264
584.77	252
584.981	260
585.191	268
585.401	266
585.611	263
585.821	263
586.032	264
586.242	239
586.452	244
586.662	246
586.872	231
587.082	263
587.292	269
587.502	266
587.713	252
587.923	250
588.133	261
588.343	259
588.553	242
588.762	263
588.972	262
589.182	250
589.392	245
589.602	255
589.812	247
590.022	249
590.232	264
590.441	257
590.651	251
590.861	246
591.071	236
591.281	228
591.49	259
591.7	250
591.91	252
592.119	241
592.329	247
592.539	272
592.748	256
592.958	258
593.167	250
593.377	259
593.587	241
593.796	251
594.006	256
594.215	267
594.424	255
594.634	255
594.843	245
595.053	255
595.262	240
595.472	252
595.681	240
595.89	241
596.1	255
596.309	236
596.518	231
596.727	230
596.937	231
597.146	240
597.355	226
597.564	233
597.774	227
597.983	241
598.192	245
598.401	227
598.61	225
598.819	213
599.028	227
599.237	226
599.446	242
599.655	227
599.864	241
600.073	229
600.282	227
600.491	230
600.7	218
600.909	211
601.118	220
601.327	215
601.536	226
601.745	220
601.953	226
602.162	230
602.371	224
602.58	232
602.789	233
602.997	217
603.206	228
603.415	203
603.623	217
603.832	211
604.041	213
604.249	219
604.458	216
604.666	213
604.875	214
605.084	216
605.292	204
605.501	218
605.709	231
605.918	235
606.126	204
606.334	218
606.543	202
606.751	221
606.96	188
607.168	209
607.376	204
607.585	205
607.793	202
608.001	197
608.21	205
608.418	197
608.626	227
608.834	192
609.043	208
609.251	210
609.459	208
609.667	208
609.875	205
610.083	193
610.291	202
610.499	220
610.707	216
610.916	212
611.124	207
611.332	212
611.54	218
611.748	202
611.955	180
612.163	198
612.371	211
612.579	188
612.787	199
612.995	204
613.203	209
613.411	209
613.618	204
613.826	213
614.034	196
614.242	228
614.449	195
614.657	201
614.865	210
615.072	207
615.28	207
615.488	199
615.695	194
615.903	200
616.111	198
616.318	219
616.526	206
616.733	192
616.941	197
617.148	202
617.356	196
617.563	190
617.771	208
617.978	204
618.185	205
618.393	191
618.6	196
618.807	191
619.015	208
619.222	191
619.429	203
619.637	199
619.844	192
620.051	192
620.258	194
620.466	176
620.673	186
620.88	194
621.087	197
621.294	207
621.501	194
621.708	193
621.915	207
622.122	198
622.329	199
622.536	203
622.743	193
622.95	189
623.157	195
623.364	184
623.571	190
623.778	189
623.985	191
624.192	195
624.399	184
624.606	186
624.812	192
625.019	186
625.226	183
625.433	183
625.639	195
625.846	205
626.053	197
626.259	194
626.466	198
626.673	183
626.879	196
627.086	183
627.293	178
627.499	167
627.706	180
627.912	186
628.119	175
628.325	188
628.532	184
628.738	180
628.945	184
629.151	168
629.357	181
629.564	177
629.77	179
629.976	180
630.183	179
630.389	179
630.595	171
630.802	172
631.008	168
631.214	167
631.42	176
631.627	177
631.833	169
632.039	181
632.245	159
632.451	179
632.657	176
632.863	155
633.069	159
633.275	157
633.481	145
633.688	155
633.893	177
634.099	177
634.305	153
634.511	169
634.717	161
634.923	157
635.129	162
635.335	154
635.541	175
635.747	162
635.952	167
636.158	177
636.364	159
636.57	151
636.775	165
636.981	154
637.187	163
637.392	156
637.598	165
637.804	175
638.009	155
638.215	155
638.421	154
638.626	181
638.832	162
639.037	159
639.243	165
639.448	151
639.654	156
639.859	164
640.065	169
640.27	163
640.475	157
640.681	139
640.886	160
641.091	154
641.297	149
641.502	140
641.707	145
641.913	151
642.118	140
642.323	161
642.528	152
642.733	152
642.939	162
643.144	138
643.349	144
643.554	161
643.759	146
643.964	164
644.169	153
644.374	147
644.579	148
644.784	139
644.989	168
645.194	156
645.399	144
645.604	162
645.809	167
646.014	149
646.219	161
646.423	148
646.628	135
646.833	155
647.038	147
647.243	146
647.447	147
647.652	157
647.857	134
648.062	140
648.266	167
648.471	159
648.676	168
648.88	147
649.085	139
649.289	158
649.494	159
649.698	145
649.903	168
650.107	164
650.312	160
650.516	155
650.721	141
650.925	142
651.13	139
651.334	147
651.539	141
651.743	143
651.947	137
652.152	149
652.356	127
652.56	144
652.764	131
652.969	125
653.173	130
653.377	139
653.581	149
653.785	119
653.99	131
654.194	131
654.398	127
654.602	128
654.806	118
655.01	146
655.214	141
655.418	135
655.622	125
655.826	135
656.03	125
656.234	116
656.438	114
656.642	119
656.846	129
657.049	123
657.253	114
657.457	120
657.661	122
657.865	113
658.068	108
658.272	100
658.476	104
658.68	93
658.883	104
659.087	103
659.291	106
659.494	95
659.698	108
659.901	86
660.105	104
660.309	104
660.512	88
660.716	112
660.919	100
661.123	80
661.326	85
661.53	84
661.733	94
661.936	81
662.14	92
662.343	84
662.546	95
662.75	84
662.953	85
663.156	82
663.36	93
663.563	76
663.766	88
663.969	97
664.173	88
664.376	88
664.579	89
664.782	78
664.985	86
665.188	79
665.391	96
665.594	79
665.797	103
666	91
666.203	97
666.406	81
666.609	83
666.812	91
667.015	85
667.218	91
667.421	86
667.624	86
667.827	99
668.03	90
668.232	92
668.435	88
668.638	79
668.841	81
669.043	91
669.246	72
669.449	74
669.651	86
669.854	81
670.057	92
670.259	100
670.462	86
670.665	90
670.867	85
671.07	83
671.272	81
671.475	101
671.677	82
671.88	83
672.082	81
672.284	79
672.487	93
672.689	88
672.892	83
