Data from 1961.PennyLincolnUp.Lamp.En5.5.200Scan.071719.P1._HRD10591_13-48-39-058.txt Node
Date: Thu Jul 18 13:48:39 EDT 2019
User: cochatt
Spectrometer: HR+D1059
Trigger mode: 1
Integration Time (sec): 1.000000E-1
Scans to average: 1
Electric dark correction enabled: true
Nonlinearity correction enabled: false
Boxcar width: 0
XAxis mode: Wavelengths
Number of Pixels in Spectrum: 2048
>>>>>Begin Spectral Data<<<<<
223.165	-13
223.4	-13
223.635	-13
223.869	-15
224.104	-15
224.338	-8
224.573	-7
224.808	-4
225.042	-15
225.277	8
225.511	-8
225.746	3
225.98	-10
226.215	19
226.449	8
226.683	5
226.918	22
227.152	30
227.387	45
227.621	32
227.856	41
228.09	50
228.324	45
228.559	56
228.793	62
229.027	101
229.262	88
229.496	124
229.73	136
229.964	143
230.199	128
230.433	114
230.667	98
230.901	99
231.136	108
231.37	122
231.604	104
231.838	94
232.072	106
232.306	125
232.541	114
232.775	103
233.009	102
233.243	107
233.477	118
233.711	105
233.945	103
234.179	109
234.413	100
234.647	115
234.881	122
235.115	116
235.349	117
235.583	109
235.817	114
236.051	124
236.285	121
236.519	110
236.753	104
236.987	139
237.221	167
237.455	212
237.689	183
237.922	137
238.156	124
238.39	130
238.624	124
238.858	124
239.091	119
239.325	117
239.559	119
239.793	124
240.027	133
240.26	139
240.494	148
240.728	137
240.961	137
241.195	143
241.429	129
241.662	129
241.896	124
242.13	116
242.363	108
242.597	115
242.83	124
243.064	131
243.298	124
243.531	124
243.765	124
243.998	124
244.232	120
244.465	131
244.699	135
244.932	137
245.166	129
245.399	146
245.633	129
245.866	117
246.099	141
246.333	134
246.566	122
246.8	127
247.033	147
247.266	140
247.5	150
247.733	149
247.966	162
248.2	162
248.433	152
248.666	162
248.899	164
249.133	168
249.366	188
249.599	183
249.832	161
250.066	160
250.299	152
250.532	170
250.765	182
250.998	197
251.231	210
251.465	203
251.698	171
251.931	163
252.164	169
252.397	184
252.63	171
252.863	180
253.096	173
253.329	200
253.562	206
253.795	192
254.028	193
254.261	191
254.494	189
254.727	222
254.96	256
255.193	242
255.426	204
255.659	193
255.892	204
256.124	196
256.357	222
256.59	187
256.823	203
257.056	189
257.289	182
257.521	168
257.754	174
257.987	173
258.22	179
258.452	176
258.685	180
258.918	191
259.151	187
259.383	185
259.616	186
259.849	192
260.081	197
260.314	212
260.547	226
260.779	214
261.012	220
261.244	194
261.477	203
261.71	192
261.942	197
262.175	228
262.407	210
262.64	199
262.872	192
263.105	205
263.337	186
263.57	176
263.802	193
264.035	183
264.267	170
264.499	189
264.732	182
264.964	190
265.197	176
265.429	196
265.661	196
265.894	173
266.126	189
266.358	181
266.591	187
266.823	184
267.055	187
267.287	189
267.52	195
267.752	187
267.984	186
268.216	192
268.448	196
268.681	198
268.913	237
269.145	204
269.377	236
269.609	213
269.841	225
270.073	246
270.306	248
270.538	266
270.77	270
271.002	242
271.234	236
271.466	260
271.698	256
271.93	261
272.162	271
272.394	279
272.626	265
272.858	240
273.09	244
273.322	229
273.553	216
273.785	222
274.017	222
274.249	202
274.481	222
274.713	231
274.945	227
275.176	232
275.408	213
275.64	218
275.872	211
276.104	213
276.335	224
276.567	243
276.799	259
277.031	258
277.262	265
277.494	261
277.726	247
277.957	241
278.189	236
278.421	224
278.652	222
278.884	228
279.115	219
279.347	221
279.579	221
279.81	215
280.042	228
280.273	228
280.505	230
280.736	229
280.968	218
281.199	213
281.431	211
281.662	232
281.894	217
282.125	241
282.356	236
282.588	264
282.819	261
283.051	230
283.282	230
283.513	225
283.745	222
283.976	240
284.207	242
284.439	245
284.67	236
284.901	241
285.132	217
285.364	241
285.595	229
285.826	222
286.057	227
286.288	224
286.52	226
286.751	225
286.982	253
287.213	243
287.444	232
287.675	230
287.906	246
288.138	231
288.369	233
288.6	243
288.831	252
289.062	249
289.293	230
289.524	233
289.755	237
289.986	229
290.217	228
290.448	225
290.679	248
290.91	243
291.141	236
291.371	247
291.602	246
291.833	216
292.064	243
292.295	224
292.526	243
292.757	236
292.987	241
293.218	232
293.449	252
293.68	242
293.91	246
294.141	216
294.372	247
294.603	242
294.833	243
295.064	262
295.295	235
295.525	242
295.756	258
295.987	258
296.217	278
296.448	293
296.679	268
296.909	242
297.14	250
297.37	257
297.601	244
297.831	233
298.062	247
298.292	244
298.523	242
298.753	254
298.984	249
299.214	260
299.445	258
299.675	259
299.905	266
300.136	270
300.366	269
300.597	246
300.827	245
301.057	265
301.288	278
301.518	256
301.748	264
301.979	241
302.209	268
302.439	282
302.669	276
302.9	253
303.13	261
303.36	262
303.59	272
303.82	271
304.051	265
304.281	273
304.511	289
304.741	265
304.971	271
305.201	245
305.431	260
305.661	258
305.891	264
306.121	278
306.352	270
306.582	293
306.812	282
307.042	276
307.272	285
307.502	262
307.731	274
307.961	286
308.191	274
308.421	279
308.651	278
308.881	284
309.111	288
309.341	302
309.571	287
309.8	304
310.03	318
310.26	337
310.49	322
310.72	327
310.949	351
311.179	336
311.409	341
311.639	320
311.868	323
312.098	319
312.328	338
312.557	345
312.787	368
313.017	374
313.246	347
313.476	318
313.706	313
313.935	328
314.165	337
314.394	335
314.624	344
314.853	333
315.083	317
315.312	312
315.542	318
315.771	319
316.001	319
316.23	300
316.46	322
316.689	324
316.919	316
317.148	326
317.377	313
317.607	319
317.836	333
318.065	318
318.295	312
318.524	321
318.753	311
318.983	299
319.212	293
319.441	309
319.67	338
319.9	331
320.129	326
320.358	333
320.587	342
320.816	317
321.046	347
321.275	334
321.504	348
321.733	363
321.962	350
322.191	387
322.42	377
322.649	392
322.878	392
323.108	405
323.337	442
323.566	470
323.795	530
324.024	558
324.253	699
324.482	1052
324.71	1639
324.939	2285
325.168	1904
325.397	970
325.626	630
325.855	535
326.084	486
326.313	448
326.542	502
326.77	536
326.999	640
327.228	913
327.457	1387
327.686	1664
327.914	1101
328.143	720
328.372	628
328.6	583
328.829	522
329.058	558
329.287	555
329.515	521
329.744	491
329.972	482
330.201	491
330.43	532
330.658	562
330.887	583
331.115	572
331.344	473
331.572	439
331.801	451
332.03	425
332.258	406
332.486	396
332.715	370
332.943	391
333.172	391
333.4	388
333.629	416
333.857	428
334.085	429
334.314	461
334.542	467
334.771	502
334.999	453
335.227	412
335.455	407
335.684	408
335.912	390
336.14	372
336.369	380
336.597	380
336.825	386
337.053	375
337.281	360
337.51	368
337.738	362
337.966	384
338.194	385
338.422	360
338.65	380
338.878	362
339.106	370
339.334	342
339.562	354
339.79	349
340.018	362
340.246	380
340.474	380
340.702	373
340.93	361
341.158	372
341.386	374
341.614	369
341.842	360
342.07	350
342.298	382
342.526	338
342.754	340
342.981	357
343.209	352
343.437	368
343.665	362
343.893	357
344.12	362
344.348	355
344.576	361
344.804	368
345.031	378
345.259	398
345.487	381
345.714	378
345.942	377
346.17	341
346.397	349
346.625	346
346.853	354
347.08	355
347.308	363
347.535	369
347.763	368
347.99	378
348.218	378
348.445	358
348.673	386
348.9	354
349.128	334
349.355	333
349.583	347
349.81	323
350.037	345
350.265	340
350.492	334
350.72	355
350.947	341
351.174	351
351.402	376
351.629	366
351.856	349
352.083	377
352.311	371
352.538	376
352.765	383
352.992	376
353.22	374
353.447	364
353.674	343
353.901	347
354.128	330
354.355	319
354.583	327
354.81	332
355.037	328
355.264	320
355.491	324
355.718	332
355.945	329
356.172	315
356.399	308
356.626	319
356.853	311
357.08	325
357.307	314
357.534	323
357.761	314
357.988	326
358.215	317
358.441	319
358.668	324
358.895	332
359.122	335
359.349	329
359.576	347
359.802	376
360.029	409
360.256	408
360.483	399
360.709	388
360.936	350
361.163	361
361.39	377
361.616	368
361.843	336
362.07	354
362.296	360
362.523	370
362.749	340
362.976	343
363.203	346
363.429	333
363.656	341
363.882	319
364.109	323
364.335	331
364.562	331
364.788	338
365.015	327
365.241	338
365.468	337
365.694	338
365.92	336
366.147	327
366.373	337
366.599	344
366.826	349
367.052	322
367.278	333
367.505	318
367.731	336
367.957	334
368.184	326
368.41	348
368.636	372
368.862	361
369.089	327
369.315	333
369.541	340
369.767	336
369.993	341
370.219	330
370.445	327
370.672	291
370.898	310
371.124	347
371.35	323
371.576	328
371.802	329
372.028	315
372.254	331
372.48	310
372.706	317
372.932	326
373.158	299
373.384	323
373.61	325
373.835	327
374.061	322
374.287	336
374.513	338
374.739	329
374.965	333
375.191	324
375.416	326
375.642	313
375.868	332
376.094	331
376.319	316
376.545	312
376.771	331
376.997	326
377.222	320
377.448	333
377.674	322
377.899	309
378.125	315
378.35	310
378.576	315
378.802	308
379.027	308
379.253	330
379.478	329
379.704	314
379.929	324
380.155	323
380.38	323
380.606	325
380.831	318
381.057	337
381.282	339
381.507	317
381.733	349
381.958	332
382.184	332
382.409	314
382.634	322
382.86	339
383.085	338
383.31	345
383.535	325
383.761	340
383.986	349
384.211	322
384.436	350
384.662	357
384.887	323
385.112	327
385.337	332
385.562	328
385.787	347
386.013	361
386.238	357
386.463	360
386.688	335
386.913	348
387.138	342
387.363	331
387.588	362
387.813	362
388.038	354
388.263	337
388.488	370
388.713	365
388.938	344
389.163	347
389.387	341
389.612	336
389.837	330
390.062	353
390.287	346
390.512	345
390.736	344
390.961	350
391.186	324
391.411	345
391.636	356
391.86	354
392.085	356
392.31	340
392.534	354
392.759	335
392.984	329
393.208	355
393.433	343
393.658	355
393.882	346
394.107	355
394.331	327
394.556	362
394.78	339
395.005	363
395.229	358
395.454	353
395.678	356
395.903	378
396.127	398
396.352	401
396.576	383
396.801	365
397.025	356
397.249	387
397.474	375
397.698	376
397.922	384
398.147	382
398.371	398
398.595	396
398.82	395
399.044	396
399.268	392
399.492	432
399.717	418
399.941	455
400.165	490
400.389	487
400.613	446
400.837	425
401.062	416
401.286	391
401.51	398
401.734	387
401.958	409
402.182	412
402.406	416
402.63	406
402.854	413
403.078	398
403.302	420
403.526	412
403.75	412
403.974	408
404.198	398
404.422	425
404.645	433
404.869	428
405.093	450
405.317	470
405.541	506
405.765	478
405.988	424
406.212	445
406.436	473
406.66	479
406.883	464
407.107	460
407.331	493
407.555	551
407.778	535
408.002	489
408.226	468
408.449	455
408.673	471
408.896	463
409.12	517
409.344	487
409.567	446
409.791	446
410.014	421
410.238	407
410.461	410
410.685	427
410.908	444
411.132	465
411.355	504
411.578	474
411.802	419
412.025	400
412.249	424
412.472	453
412.695	481
412.919	456
413.142	424
413.365	420
413.589	409
413.812	404
414.035	390
414.258	403
414.482	400
414.705	411
414.928	398
415.151	400
415.374	373
415.597	402
415.821	409
416.044	387
416.267	416
416.49	394
416.713	414
416.936	402
417.159	381
417.382	402
417.605	414
417.828	408
418.051	409
418.274	412
418.497	383
418.72	379
418.943	405
419.166	403
419.389	411
419.611	411
419.834	409
420.057	413
420.28	423
420.503	416
420.726	452
420.948	427
421.171	457
421.394	483
421.617	440
421.839	399
422.062	426
422.285	418
422.507	490
422.73	546
422.953	531
423.175	464
423.398	434
423.621	429
423.843	460
424.066	432
424.288	433
424.511	473
424.733	526
424.956	593
425.178	554
425.401	551
425.623	581
425.846	493
426.068	461
426.291	453
426.513	465
426.735	470
426.958	499
427.18	587
427.402	669
427.625	759
427.847	681
428.069	601
428.292	550
428.514	470
428.736	462
428.958	441
429.181	421
429.403	414
429.625	424
429.847	456
430.069	516
430.292	532
430.514	450
430.736	413
430.958	403
431.18	397
431.402	402
431.624	404
431.846	383
432.068	406
432.29	408
432.512	390
432.734	428
432.956	407
433.178	414
433.4	424
433.622	395
433.844	411
434.066	405
434.287	405
434.509	403
434.731	409
434.953	428
435.175	428
435.397	459
435.618	458
435.84	516
436.062	590
436.284	614
436.505	532
436.727	474
436.949	445
437.17	410
437.392	426
437.614	442
437.835	480
438.057	561
438.278	681
438.5	654
438.721	707
438.943	657
439.165	544
439.386	480
439.608	482
439.829	477
440.05	516
440.272	530
440.493	522
440.715	452
440.936	434
441.158	446
441.379	440
441.6	450
441.822	437
442.043	499
442.264	570
442.486	607
442.707	518
442.928	484
443.149	478
443.371	526
443.592	552
443.813	600
444.034	664
444.255	565
444.476	506
444.698	458
444.919	442
445.14	548
445.361	496
445.582	513
445.803	590
446.024	676
446.245	643
446.466	611
446.687	505
446.908	471
447.129	459
447.35	453
447.571	438
447.792	425
448.013	451
448.234	452
448.455	502
448.675	578
448.896	672
449.117	583
449.338	560
449.559	665
449.779	730
450	586
450.221	500
450.442	482
450.662	436
450.883	444
451.104	458
451.324	456
451.545	425
451.766	402
451.986	380
452.207	387
452.428	389
452.648	393
452.869	405
453.089	409
453.31	394
453.53	401
453.751	386
453.971	381
454.192	406
454.412	404
454.633	404
454.853	400
455.073	397
455.294	410
455.514	476
455.734	462
455.955	421
456.175	378
456.395	378
456.616	375
456.836	363
457.056	369
457.276	361
457.497	368
457.717	374
457.937	371
458.157	378
458.377	375
458.598	405
458.818	474
459.038	552
459.258	556
459.478	445
459.698	422
459.918	412
460.138	414
460.358	402
460.578	397
460.798	385
461.018	404
461.238	413
461.458	398
461.678	374
461.898	396
462.118	394
462.338	397
462.558	416
462.777	397
462.997	397
463.217	421
463.437	444
463.657	428
463.876	413
464.096	419
464.316	412
464.536	426
464.755	425
464.975	429
465.195	474
465.414	584
465.634	504
465.854	449
466.073	436
466.293	411
466.512	392
466.732	397
466.951	421
467.171	390
467.391	379
467.61	428
467.829	431
468.049	391
468.268	416
468.488	401
468.707	390
468.927	376
469.146	393
469.365	375
469.585	389
469.804	414
470.023	415
470.243	426
470.462	413
470.681	419
470.901	434
471.12	399
471.339	415
471.558	394
471.777	412
471.997	425
472.216	422
472.435	447
472.654	442
472.873	406
473.092	396
473.311	391
473.53	408
473.749	400
473.968	462
474.187	560
474.406	572
474.625	469
474.844	444
475.063	428
475.282	408
475.501	410
475.72	409
475.939	432
476.158	402
476.377	426
476.596	411
476.814	432
477.033	436
477.252	437
477.471	422
477.69	434
477.908	443
478.127	426
478.346	430
478.564	426
478.783	445
479.002	461
479.22	449
479.439	463
479.658	467
479.876	485
480.095	510
480.313	514
480.532	489
480.751	493
480.969	512
481.188	590
481.406	624
481.624	551
481.843	510
482.061	488
482.28	498
482.498	498
482.717	494
482.935	477
483.153	480
483.372	468
483.59	445
483.808	469
484.027	463
484.245	484
484.463	469
484.681	460
484.9	474
485.118	475
485.336	497
485.554	485
485.772	490
485.99	475
486.209	480
486.427	488
486.645	507
486.863	496
487.081	514
487.299	526
487.517	507
487.735	493
487.953	522
488.171	504
488.389	490
488.607	505
488.825	493
489.043	511
489.261	506
489.479	522
489.696	533
489.914	525
490.132	538
490.35	525
490.568	517
490.786	522
491.003	529
491.221	578
491.439	562
491.657	552
491.874	581
492.092	566
492.31	586
492.527	574
492.745	573
492.963	566
493.18	597
493.398	570
493.615	594
493.833	593
494.05	575
494.268	608
494.485	580
494.703	603
494.92	589
495.138	606
495.355	600
495.573	610
495.79	628
496.008	605
496.225	602
496.442	615
496.66	594
496.877	608
497.094	624
497.312	628
497.529	611
497.746	623
497.963	606
498.181	637
498.398	669
498.615	659
498.832	664
499.049	670
499.267	664
499.484	701
499.701	680
499.918	717
500.135	726
500.352	725
500.569	739
500.786	757
501.003	733
501.22	740
501.437	722
501.654	711
501.871	739
502.088	701
502.305	648
502.522	658
502.739	648
502.956	648
503.172	649
503.389	608
503.606	642
503.823	611
504.04	619
504.256	622
504.473	605
504.69	624
504.907	610
505.123	566
505.34	577
505.557	585
505.773	571
505.99	590
506.207	595
506.423	589
506.64	584
506.856	570
507.073	570
507.289	560
507.506	566
507.722	583
507.939	627
508.155	572
508.372	580
508.588	553
508.805	564
509.021	556
509.238	572
509.454	579
509.67	555
509.887	575
510.103	542
510.319	592
510.536	701
510.752	1202
510.968	969
511.184	608
511.401	578
511.617	549
511.833	560
512.049	530
512.265	538
512.481	515
512.698	542
512.914	530
513.13	526
513.346	542
513.562	542
513.778	549
513.994	534
514.21	582
514.426	591
514.642	651
514.858	671
515.074	746
515.29	846
515.506	1290
515.721	1045
515.937	708
516.153	629
516.369	615
516.585	578
516.801	574
517.016	562
517.232	554
517.448	537
517.664	541
517.879	577
518.095	536
518.311	540
518.527	558
518.742	544
518.958	536
519.173	539
519.389	512
519.605	535
519.82	559
520.036	570
520.251	612
520.467	632
520.682	618
520.898	630
521.113	667
521.329	697
521.544	798
521.76	1047
521.975	1693
522.19	1669
522.406	906
522.621	667
522.836	595
523.052	556
523.267	544
523.482	516
523.698	522
523.913	483
524.128	523
524.343	494
524.559	481
524.774	489
524.989	477
525.204	498
525.419	496
525.634	478
525.849	450
526.064	453
526.28	456
526.495	451
526.71	429
526.925	437
527.14	436
527.355	442
527.57	444
527.785	446
527.999	432
528.214	432
528.429	435
528.644	448
528.859	450
529.074	431
529.289	454
529.503	575
529.718	532
529.933	478
530.148	453
530.363	462
530.577	458
530.792	419
531.007	434
531.221	432
531.436	444
531.651	428
531.865	404
532.08	404
532.295	420
532.509	407
532.724	404
532.938	418
533.153	421
533.367	424
533.582	413
533.796	402
534.011	405
534.225	416
534.44	410
534.654	413
534.868	406
535.083	414
535.297	399
535.511	433
535.726	453
535.94	421
536.154	416
536.369	414
536.583	404
536.797	394
537.011	402
537.225	428
537.44	426
537.654	407
537.868	388
538.082	381
538.296	382
538.51	391
538.724	384
538.938	374
539.153	404
539.367	401
539.581	398
539.795	395
540.009	388
540.222	377
540.436	374
540.65	404
540.864	404
541.078	408
541.292	406
541.506	402
541.72	397
541.934	395
542.147	383
542.361	412
542.575	377
542.789	378
543.002	401
543.216	402
543.43	400
543.644	383
543.857	393
544.071	398
544.285	405
544.498	379
544.712	388
544.925	394
545.139	386
545.352	361
545.566	384
545.779	383
545.993	373
546.206	379
546.42	378
546.633	385
546.847	372
547.06	374
547.274	354
547.487	364
547.7	364
547.914	373
548.127	382
548.34	362
548.554	370
548.767	359
548.98	362
549.193	377
549.407	374
549.62	372
549.833	359
550.046	362
550.259	376
550.473	374
550.686	349
550.899	373
551.112	374
551.325	359
551.538	363
551.751	373
551.964	372
552.177	379
552.39	362
552.603	372
552.816	372
553.029	363
553.242	352
553.455	354
553.667	386
553.88	392
554.093	379
554.306	396
554.519	365
554.732	353
554.944	369
555.157	376
555.37	354
555.583	360
555.795	362
556.008	338
556.221	358
556.433	343
556.646	363
556.859	325
557.071	334
557.284	336
557.496	332
557.709	331
557.921	352
558.134	343
558.346	322
558.559	329
558.771	326
558.984	328
559.196	322
559.409	326
559.621	314
559.833	339
560.046	323
560.258	337
560.47	315
560.683	328
560.895	339
561.107	314
561.32	312
561.532	326
561.744	327
561.956	324
562.168	334
562.381	340
562.593	329
562.805	322
563.017	322
563.229	330
563.441	342
563.653	316
563.865	338
564.077	337
564.289	349
564.501	354
564.713	339
564.925	347
565.137	330
565.349	338
565.561	364
565.773	361
565.985	375
566.197	346
566.408	360
566.62	363
566.832	383
567.044	362
567.255	370
567.467	384
567.679	377
567.891	378
568.102	379
568.314	354
568.526	335
568.737	359
568.949	358
569.161	349
569.372	334
569.584	331
569.795	332
570.007	330
570.218	377
570.43	347
570.641	308
570.853	301
571.064	308
571.276	310
571.487	319
571.698	320
571.91	317
572.121	285
572.333	305
572.544	288
572.755	305
572.966	299
573.178	291
573.389	296
573.6	292
573.811	302
574.023	311
574.234	314
574.445	291
574.656	273
574.867	293
575.078	294
575.289	272
575.501	296
575.712	284
575.923	288
576.134	290
576.345	281
576.556	299
576.767	285
576.978	284
577.188	285
577.399	282
577.61	268
577.821	282
578.032	278
578.243	336
578.454	560
578.665	392
578.875	301
579.086	289
579.297	281
579.508	255
579.718	269
579.929	275
580.14	266
580.35	258
580.561	268
580.772	274
580.982	262
581.193	268
581.403	269
581.614	265
581.825	268
582.035	259
582.246	259
582.456	267
582.667	268
582.877	246
583.087	254
583.298	241
583.508	254
583.719	260
583.929	262
584.139	267
584.35	274
584.56	264
584.77	254
584.981	262
585.191	263
585.401	270
585.611	258
585.821	240
586.032	264
586.242	262
586.452	253
586.662	276
586.872	259
587.082	253
587.292	250
587.502	265
587.713	265
587.923	248
588.133	243
588.343	235
588.553	247
588.762	254
588.972	251
589.182	254
589.392	235
589.602	244
589.812	258
590.022	254
590.232	249
590.441	232
590.651	241
590.861	251
591.071	261
591.281	265
591.49	249
591.7	245
591.91	253
592.119	231
592.329	263
592.539	265
592.748	230
592.958	256
593.167	263
593.377	257
593.587	272
593.796	259
594.006	256
594.215	266
594.424	266
594.634	241
594.843	246
595.053	235
595.262	264
595.472	257
595.681	237
595.89	242
596.1	249
596.309	235
596.518	243
596.727	234
596.937	237
597.146	232
597.355	240
597.564	253
597.774	218
597.983	251
598.192	235
598.401	234
598.61	224
598.819	229
599.028	242
599.237	221
599.446	214
599.655	241
599.864	217
600.073	219
600.282	237
600.491	213
600.7	210
600.909	222
601.118	234
601.327	214
601.536	220
601.745	217
601.953	216
602.162	227
602.371	198
602.58	228
602.789	214
602.997	241
603.206	203
603.415	216
603.623	206
603.832	222
604.041	212
604.249	224
604.458	215
604.666	216
604.875	197
605.084	215
605.292	202
605.501	221
605.709	218
605.918	220
606.126	217
606.334	205
606.543	200
606.751	219
606.96	218
607.168	221
607.376	232
607.585	227
607.793	221
608.001	219
608.21	221
608.418	216
608.626	211
608.834	211
609.043	207
609.251	205
609.459	197
609.667	216
609.875	201
610.083	227
610.291	200
610.499	206
610.707	202
610.916	208
611.124	206
611.332	201
611.54	201
611.748	215
611.955	203
612.163	223
612.371	204
612.579	193
612.787	212
612.995	211
613.203	208
613.411	210
613.618	196
613.826	204
614.034	198
614.242	190
614.449	197
614.657	204
614.865	204
615.072	192
615.28	190
615.488	207
615.695	204
615.903	206
616.111	184
616.318	206
616.526	194
616.733	201
616.941	201
617.148	196
617.356	198
617.563	182
617.771	188
617.978	190
618.185	196
618.393	206
618.6	212
618.807	201
619.015	195
619.222	187
619.429	197
619.637	204
619.844	191
620.051	208
620.258	182
620.466	201
620.673	185
620.88	195
621.087	207
621.294	187
621.501	184
621.708	204
621.915	205
622.122	203
622.329	203
622.536	184
622.743	188
622.95	199
623.157	183
623.364	195
623.571	195
623.778	198
623.985	190
624.192	207
624.399	190
624.606	185
624.812	180
625.019	181
625.226	183
625.433	184
625.639	190
625.846	180
626.053	194
626.259	195
626.466	188
626.673	180
626.879	184
627.086	186
627.293	207
627.499	188
627.706	187
627.912	180
628.119	179
628.325	182
628.532	185
628.738	182
628.945	184
629.151	178
629.357	168
629.564	182
629.77	164
629.976	164
630.183	180
630.389	166
630.595	169
630.802	180
631.008	170
631.214	184
631.42	178
631.627	181
631.833	164
632.039	165
632.245	177
632.451	161
632.657	169
632.863	167
633.069	151
633.275	180
633.481	168
633.688	161
633.893	184
634.099	158
634.305	162
634.511	170
634.717	172
634.923	161
635.129	169
635.335	155
635.541	153
635.747	166
635.952	166
636.158	181
636.364	171
636.57	164
636.775	186
636.981	161
637.187	157
637.392	179
637.598	157
637.804	168
638.009	153
638.215	159
638.421	160
638.626	171
638.832	156
639.037	159
639.243	157
639.448	173
639.654	169
639.859	160
640.065	152
640.27	160
640.475	157
640.681	185
640.886	161
641.091	146
641.297	166
641.502	164
641.707	166
641.913	171
642.118	168
642.323	158
642.528	155
642.733	147
642.939	142
643.144	152
643.349	173
643.554	146
643.759	149
643.964	167
644.169	164
644.374	146
644.579	155
644.784	150
644.989	151
645.194	138
645.399	158
645.604	151
645.809	139
646.014	159
646.219	159
646.423	155
646.628	132
646.833	157
647.038	146
647.243	156
647.447	137
647.652	146
647.857	151
648.062	168
648.266	154
648.471	146
648.676	154
648.88	146
649.085	134
649.289	140
649.494	159
649.698	161
649.903	167
650.107	171
650.312	129
650.516	136
650.721	121
650.925	137
651.13	145
651.334	141
651.539	146
651.743	139
651.947	136
652.152	139
652.356	132
652.56	124
652.764	134
652.969	121
653.173	142
653.377	146
653.581	145
653.785	145
653.99	124
654.194	124
654.398	138
654.602	149
654.806	126
655.01	127
655.214	133
655.418	121
655.622	130
655.826	142
656.03	138
656.234	132
656.438	117
656.642	135
656.846	130
657.049	127
657.253	121
657.457	112
657.661	107
657.865	107
658.068	116
658.272	115
658.476	114
658.68	121
658.883	102
659.087	105
659.291	97
659.494	95
659.698	92
659.901	95
660.105	100
660.309	95
660.512	101
660.716	102
660.919	90
661.123	112
661.326	101
661.53	91
661.733	92
661.936	86
662.14	94
662.343	94
662.546	60
662.75	69
662.953	90
663.156	89
663.36	90
663.563	103
663.766	76
663.969	71
664.173	90
664.376	77
664.579	74
664.782	93
664.985	83
665.188	98
665.391	104
665.594	80
665.797	77
666	93
666.203	91
666.406	91
666.609	90
666.812	81
667.015	88
667.218	86
667.421	96
667.624	91
667.827	92
668.03	86
668.232	92
668.435	76
668.638	85
668.841	89
669.043	94
669.246	90
669.449	82
669.651	93
669.854	86
670.057	78
670.259	77
670.462	89
670.665	95
670.867	96
671.07	79
671.272	92
671.475	83
671.677	93
671.88	93
672.082	94
672.284	86
672.487	94
672.689	93
672.892	89
