Data from 1962.PennyLincolnUp.Lamp.En5.5.200Scan.071719.P1._HRD10591_13-53-56-060.txt Node
Date: Thu Jul 18 13:53:56 EDT 2019
User: cochatt
Spectrometer: HR+D1059
Trigger mode: 1
Integration Time (sec): 1.000000E-1
Scans to average: 1
Electric dark correction enabled: true
Nonlinearity correction enabled: false
Boxcar width: 0
XAxis mode: Wavelengths
Number of Pixels in Spectrum: 2048
>>>>>Begin Spectral Data<<<<<
223.165	-10
223.4	-10
223.635	-10
223.869	-22
224.104	-28
224.338	-18
224.573	-22
224.808	-13
225.042	-11
225.277	-9
225.511	7
225.746	4
225.98	11
226.215	14
226.449	9
226.683	27
226.918	26
227.152	35
227.387	36
227.621	39
227.856	43
228.09	47
228.324	47
228.559	63
228.793	71
229.027	85
229.262	94
229.496	100
229.73	92
229.964	126
230.199	115
230.433	91
230.667	96
230.901	104
231.136	97
231.37	87
231.604	109
231.838	106
232.072	96
232.306	113
232.541	111
232.775	106
233.009	109
233.243	88
233.477	109
233.711	124
233.945	112
234.179	101
234.413	110
234.647	107
234.881	113
235.115	102
235.349	114
235.583	119
235.817	122
236.051	105
236.285	118
236.519	105
236.753	110
236.987	126
237.221	138
237.455	193
237.689	145
237.922	128
238.156	116
238.39	117
238.624	103
238.858	121
239.091	122
239.325	102
239.559	119
239.793	125
240.027	127
240.26	125
240.494	144
240.728	145
240.961	125
241.195	103
241.429	121
241.662	127
241.896	115
242.13	118
242.363	135
242.597	127
242.83	121
243.064	111
243.298	125
243.531	129
243.765	144
243.998	131
244.232	119
244.465	129
244.699	132
244.932	139
245.166	144
245.399	140
245.633	142
245.866	149
246.099	149
246.333	127
246.566	133
246.8	143
247.033	152
247.266	139
247.5	153
247.733	153
247.966	152
248.2	148
248.433	136
248.666	152
248.899	166
249.133	147
249.366	162
249.599	157
249.832	142
250.066	163
250.299	153
250.532	181
250.765	175
250.998	185
251.231	177
251.465	176
251.698	177
251.931	164
252.164	186
252.397	173
252.63	174
252.863	190
253.096	193
253.329	178
253.562	201
253.795	191
254.028	185
254.261	161
254.494	179
254.727	211
254.96	213
255.193	215
255.426	209
255.659	199
255.892	191
256.124	202
256.357	197
256.59	193
256.823	169
257.056	178
257.289	192
257.521	161
257.754	194
257.987	195
258.22	183
258.452	190
258.685	179
258.918	183
259.151	186
259.383	199
259.616	204
259.849	197
260.081	195
260.314	212
260.547	209
260.779	196
261.012	201
261.244	203
261.477	194
261.71	202
261.942	201
262.175	210
262.407	212
262.64	207
262.872	180
263.105	187
263.337	200
263.57	183
263.802	204
264.035	200
264.267	194
264.499	205
264.732	199
264.964	201
265.197	192
265.429	203
265.661	199
265.894	195
266.126	196
266.358	199
266.591	202
266.823	213
267.055	215
267.287	225
267.52	213
267.752	212
267.984	215
268.216	226
268.448	222
268.681	225
268.913	223
269.145	243
269.377	250
269.609	245
269.841	247
270.073	224
270.306	249
270.538	267
270.77	277
271.002	257
271.234	249
271.466	273
271.698	257
271.93	263
272.162	267
272.394	286
272.626	256
272.858	247
273.09	263
273.322	245
273.553	227
273.785	230
274.017	243
274.249	234
274.481	229
274.713	249
274.945	234
275.176	237
275.408	253
275.64	253
275.872	258
276.104	232
276.335	245
276.567	246
276.799	264
277.031	270
277.262	274
277.494	282
277.726	290
277.957	258
278.189	274
278.421	266
278.652	254
278.884	270
279.115	249
279.347	255
279.579	260
279.81	248
280.042	251
280.273	247
280.505	273
280.736	258
280.968	248
281.199	265
281.431	247
281.662	273
281.894	255
282.125	275
282.356	283
282.588	280
282.819	282
283.051	262
283.282	259
283.513	262
283.745	275
283.976	277
284.207	281
284.439	270
284.67	284
284.901	282
285.132	289
285.364	271
285.595	281
285.826	257
286.057	267
286.288	266
286.52	274
286.751	255
286.982	273
287.213	282
287.444	272
287.675	288
287.906	294
288.138	281
288.369	310
288.6	285
288.831	292
289.062	281
289.293	283
289.524	280
289.755	296
289.986	292
290.217	296
290.448	285
290.679	271
290.91	276
291.141	306
291.371	282
291.602	282
291.833	304
292.064	298
292.295	282
292.526	304
292.757	289
292.987	282
293.218	289
293.449	301
293.68	301
293.91	287
294.141	288
294.372	278
294.603	289
294.833	299
295.064	281
295.295	296
295.525	296
295.756	309
295.987	306
296.217	309
296.448	312
296.679	296
296.909	302
297.14	298
297.37	309
297.601	303
297.831	302
298.062	308
298.292	290
298.523	300
298.753	302
298.984	304
299.214	306
299.445	308
299.675	303
299.905	314
300.136	293
300.366	289
300.597	306
300.827	322
301.057	314
301.288	322
301.518	314
301.748	310
301.979	331
302.209	326
302.439	322
302.669	301
302.9	315
303.13	327
303.36	320
303.59	353
303.82	335
304.051	329
304.281	327
304.511	335
304.741	329
304.971	330
305.201	330
305.431	330
305.661	331
305.891	327
306.121	315
306.352	329
306.582	327
306.812	316
307.042	316
307.272	311
307.502	328
307.731	337
307.961	324
308.191	323
308.421	336
308.651	325
308.881	309
309.111	309
309.341	330
309.571	354
309.8	323
310.03	345
310.26	358
310.49	342
310.72	338
310.949	362
311.179	350
311.409	356
311.639	346
311.868	359
312.098	356
312.328	354
312.557	366
312.787	375
313.017	379
313.246	364
313.476	361
313.706	368
313.935	357
314.165	381
314.394	342
314.624	369
314.853	362
315.083	354
315.312	370
315.542	349
315.771	349
316.001	355
316.23	369
316.46	347
316.689	352
316.919	384
317.148	350
317.377	377
317.607	359
317.836	352
318.065	360
318.295	366
318.524	369
318.753	356
318.983	373
319.212	369
319.441	346
319.67	361
319.9	371
320.129	358
320.358	360
320.587	374
320.816	365
321.046	353
321.275	359
321.504	381
321.733	391
321.962	376
322.191	383
322.42	394
322.649	400
322.878	391
323.108	405
323.337	402
323.566	436
323.795	426
324.024	449
324.253	513
324.482	668
324.71	944
324.939	1303
325.168	1149
325.397	642
325.626	510
325.855	453
326.084	443
326.313	417
326.542	429
326.77	467
326.999	503
327.228	629
327.457	856
327.686	983
327.914	705
328.143	539
328.372	495
328.6	464
328.829	470
329.058	464
329.287	454
329.515	442
329.744	427
329.972	437
330.201	436
330.43	442
330.658	478
330.887	499
331.115	468
331.344	450
331.572	423
331.801	429
332.03	429
332.258	431
332.486	420
332.715	433
332.943	445
333.172	470
333.4	452
333.629	452
333.857	482
334.085	485
334.314	478
334.542	505
334.771	503
334.999	474
335.227	446
335.455	456
335.684	442
335.912	431
336.14	442
336.369	409
336.597	443
336.825	432
337.053	425
337.281	426
337.51	423
337.738	439
337.966	427
338.194	432
338.422	433
338.65	438
338.878	407
339.106	438
339.334	426
339.562	414
339.79	406
340.018	408
340.246	403
340.474	423
340.702	420
340.93	424
341.158	423
341.386	414
341.614	402
341.842	399
342.07	397
342.298	408
342.526	404
342.754	396
342.981	413
343.209	413
343.437	406
343.665	415
343.893	449
344.12	457
344.348	446
344.576	426
344.804	423
345.031	425
345.259	423
345.487	420
345.714	406
345.942	399
346.17	397
346.397	415
346.625	408
346.853	401
347.08	399
347.308	377
347.535	403
347.763	394
347.99	410
348.218	403
348.445	407
348.673	393
348.9	405
349.128	383
349.355	370
349.583	370
349.81	396
350.037	376
350.265	387
350.492	379
350.72	383
350.947	390
351.174	395
351.402	398
351.629	403
351.856	387
352.083	378
352.311	368
352.538	393
352.765	409
352.992	383
353.22	375
353.447	387
353.674	393
353.901	378
354.128	355
354.355	348
354.583	386
354.81	373
355.037	377
355.264	372
355.491	387
355.718	379
355.945	352
356.172	375
356.399	395
356.626	390
356.853	358
357.08	389
357.307	381
357.534	356
357.761	372
357.988	382
358.215	371
358.441	387
358.668	373
358.895	399
359.122	383
359.349	377
359.576	389
359.802	398
360.029	402
360.256	410
360.483	414
360.709	391
360.936	381
361.163	395
361.39	395
361.616	402
361.843	384
362.07	401
362.296	380
362.523	381
362.749	393
362.976	385
363.203	386
363.429	387
363.656	381
363.882	375
364.109	381
364.335	399
364.562	382
364.788	373
365.015	367
365.241	410
365.468	382
365.694	387
365.92	382
366.147	381
366.373	383
366.599	383
366.826	359
367.052	401
367.278	385
367.505	381
367.731	385
367.957	362
368.184	387
368.41	372
368.636	387
368.862	376
369.089	399
369.315	409
369.541	375
369.767	388
369.993	405
370.219	394
370.445	385
370.672	401
370.898	393
371.124	382
371.35	389
371.576	378
371.802	380
372.028	391
372.254	406
372.48	401
372.706	395
372.932	413
373.158	393
373.384	409
373.61	414
373.835	397
374.061	378
374.287	375
374.513	409
374.739	408
374.965	419
375.191	409
375.416	413
375.642	413
375.868	411
376.094	400
376.319	393
376.545	389
376.771	398
376.997	379
377.222	399
377.448	398
377.674	400
377.899	385
378.125	377
378.35	376
378.576	371
378.802	381
379.027	391
379.253	409
379.478	412
379.704	381
379.929	369
380.155	385
380.38	370
380.606	387
380.831	372
381.057	401
381.282	397
381.507	401
381.733	402
381.958	397
382.184	404
382.409	413
382.634	397
382.86	412
383.085	409
383.31	417
383.535	409
383.761	407
383.986	419
384.211	431
384.436	451
384.662	419
384.887	429
385.112	425
385.337	440
385.562	442
385.787	439
386.013	461
386.238	456
386.463	458
386.688	459
386.913	441
387.138	453
387.363	468
387.588	425
387.813	454
388.038	448
388.263	439
388.488	437
388.713	447
388.938	442
389.163	450
389.387	434
389.612	441
389.837	453
390.062	435
390.287	455
390.512	447
390.736	455
390.961	446
391.186	447
391.411	459
391.636	482
391.86	483
392.085	456
392.31	468
392.534	466
392.759	471
392.984	462
393.208	463
393.433	481
393.658	472
393.882	437
394.107	453
394.331	457
394.556	458
394.78	447
395.005	461
395.229	481
395.454	475
395.678	485
395.903	463
396.127	485
396.352	480
396.576	475
396.801	479
397.025	480
397.249	483
397.474	468
397.698	494
397.922	489
398.147	484
398.371	506
398.595	528
398.82	520
399.044	561
399.268	557
399.492	593
399.717	655
399.941	666
400.165	672
400.389	646
400.613	586
400.837	567
401.062	537
401.286	535
401.51	516
401.734	546
401.958	559
402.182	509
402.406	549
402.63	554
402.854	543
403.078	538
403.302	551
403.526	534
403.75	559
403.974	566
404.198	574
404.422	553
404.645	585
404.869	592
405.093	593
405.317	592
405.541	624
405.765	586
405.988	574
406.212	578
406.436	594
406.66	587
406.883	586
407.107	608
407.331	662
407.555	691
407.778	685
408.002	671
408.226	645
408.449	613
408.673	590
408.896	611
409.12	630
409.344	621
409.567	579
409.791	550
410.014	554
410.238	546
410.461	541
410.685	561
410.908	553
411.132	603
411.355	601
411.578	579
411.802	544
412.025	551
412.249	541
412.472	563
412.695	587
412.919	552
413.142	526
413.365	524
413.589	534
413.812	527
414.035	525
414.258	528
414.482	523
414.705	516
414.928	520
415.151	528
415.374	531
415.597	520
415.821	533
416.044	520
416.267	505
416.49	498
416.713	525
416.936	522
417.159	502
417.382	510
417.605	516
417.828	510
418.051	537
418.274	538
418.497	505
418.72	514
418.943	520
419.166	542
419.389	569
419.611	584
419.834	547
420.057	534
420.28	547
420.503	540
420.726	520
420.948	543
421.171	566
421.394	583
421.617	545
421.839	519
422.062	569
422.285	534
422.507	579
422.73	631
422.953	608
423.175	531
423.398	572
423.621	549
423.843	539
424.066	558
424.288	555
424.511	575
424.733	613
424.956	623
425.178	599
425.401	614
425.623	609
425.846	585
426.068	566
426.291	535
426.513	544
426.735	536
426.958	557
427.18	615
427.402	689
427.625	743
427.847	654
428.069	602
428.292	587
428.514	550
428.736	514
428.958	512
429.181	498
429.403	475
429.625	529
429.847	539
430.069	579
430.292	573
430.514	488
430.736	509
430.958	490
431.18	467
431.402	477
431.624	465
431.846	475
432.068	485
432.29	490
432.512	486
432.734	503
432.956	513
433.178	511
433.4	493
433.622	477
433.844	463
434.066	477
434.287	490
434.509	520
434.731	512
434.953	541
435.175	534
435.397	533
435.618	532
435.84	548
436.062	611
436.284	659
436.505	567
436.727	517
436.949	522
437.17	510
437.392	508
437.614	524
437.835	523
438.057	563
438.278	623
438.5	618
438.721	717
438.943	683
439.165	559
439.386	523
439.608	533
439.829	519
440.05	524
440.272	549
440.493	539
440.715	509
440.936	503
441.158	512
441.379	539
441.6	547
441.822	544
442.043	584
442.264	614
442.486	635
442.707	586
442.928	552
443.149	559
443.371	570
443.592	579
443.813	650
444.034	687
444.255	595
444.476	576
444.698	561
444.919	588
445.14	691
445.361	631
445.582	595
445.803	613
446.024	660
446.245	662
446.466	596
446.687	537
446.908	536
447.129	502
447.35	496
447.571	474
447.792	495
448.013	487
448.234	499
448.455	526
448.675	599
448.896	673
449.117	587
449.338	559
449.559	638
449.779	713
450	600
450.221	519
450.442	500
450.662	470
450.883	466
451.104	499
451.324	478
451.545	450
451.766	453
451.986	429
452.207	422
452.428	438
452.648	458
452.869	447
453.089	444
453.31	451
453.53	450
453.751	440
453.971	441
454.192	454
454.412	459
454.633	455
454.853	448
455.073	447
455.294	458
455.514	494
455.734	485
455.955	425
456.175	429
456.395	414
456.616	426
456.836	413
457.056	422
457.276	427
457.497	427
457.717	426
457.937	412
458.157	422
458.377	434
458.598	469
458.818	472
459.038	516
459.258	553
459.478	518
459.698	497
459.918	502
460.138	515
460.358	517
460.578	506
460.798	522
461.018	531
461.238	531
461.458	523
461.678	493
461.898	535
462.118	542
462.338	554
462.558	560
462.777	581
462.997	598
463.217	609
463.437	602
463.657	588
463.876	573
464.096	590
464.316	582
464.536	574
464.755	571
464.975	561
465.195	564
465.414	571
465.634	509
465.854	496
466.073	500
466.293	470
466.512	474
466.732	457
466.951	478
467.171	461
467.391	466
467.61	478
467.829	460
468.049	470
468.268	446
468.488	460
468.707	460
468.927	475
469.146	454
469.365	449
469.585	455
469.804	457
470.023	479
470.243	477
470.462	482
470.681	486
470.901	490
471.12	477
471.339	479
471.558	488
471.777	466
471.997	465
472.216	481
472.435	466
472.654	455
472.873	474
473.092	473
473.311	463
473.53	451
473.749	463
473.968	497
474.187	534
474.406	545
474.625	495
474.844	493
475.063	461
475.282	472
475.501	462
475.72	490
475.939	483
476.158	496
476.377	500
476.596	489
476.814	487
477.033	471
477.252	514
477.471	493
477.69	505
477.908	514
478.127	497
478.346	521
478.564	519
478.783	540
479.002	554
479.22	524
479.439	547
479.658	566
479.876	564
480.095	542
480.313	580
480.532	595
480.751	579
480.969	575
481.188	600
481.406	602
481.624	576
481.843	561
482.061	551
482.28	551
482.498	537
482.717	550
482.935	564
483.153	524
483.372	535
483.59	530
483.808	535
484.027	542
484.245	545
484.463	555
484.681	536
484.9	552
485.118	577
485.336	546
485.554	565
485.772	543
485.99	578
486.209	566
486.427	566
486.645	557
486.863	565
487.081	550
487.299	561
487.517	580
487.735	570
487.953	589
488.171	573
488.389	574
488.607	566
488.825	575
489.043	589
489.261	578
489.479	567
489.696	572
489.914	566
490.132	606
490.35	589
490.568	590
490.786	604
491.003	607
491.221	593
491.439	592
491.657	631
491.874	605
492.092	621
492.31	621
492.527	618
492.745	623
492.963	622
493.18	639
493.398	623
493.615	645
493.833	631
494.05	623
494.268	636
494.485	636
494.703	635
494.92	657
495.138	651
495.355	663
495.573	641
495.79	669
496.008	651
496.225	646
496.442	664
496.66	664
496.877	667
497.094	686
497.312	685
497.529	714
497.746	713
497.963	717
498.181	739
498.398	747
498.615	780
498.832	805
499.049	843
499.267	909
499.484	903
499.701	956
499.918	1031
500.135	1101
500.352	1182
500.569	1205
500.786	1198
501.003	1189
501.22	1112
501.437	1059
501.654	989
501.871	935
502.088	924
502.305	852
502.522	824
502.739	789
502.956	770
503.172	737
503.389	715
503.606	714
503.823	705
504.04	718
504.256	705
504.473	699
504.69	710
504.907	691
505.123	678
505.34	677
505.557	636
505.773	645
505.99	624
506.207	636
506.423	627
506.64	621
506.856	591
507.073	618
507.289	610
507.506	593
507.722	600
507.939	614
508.155	598
508.372	606
508.588	564
508.805	583
509.021	592
509.238	563
509.454	586
509.67	590
509.887	573
510.103	575
510.319	562
510.536	641
510.752	858
510.968	733
511.184	575
511.401	565
511.617	542
511.833	552
512.049	569
512.265	546
512.481	549
512.698	545
512.914	526
513.13	538
513.346	535
513.562	537
513.778	581
513.994	536
514.21	557
514.426	555
514.642	544
514.858	587
515.074	612
515.29	662
515.506	817
515.721	718
515.937	627
516.153	605
516.369	585
516.585	592
516.801	609
517.016	599
517.232	616
517.448	601
517.664	649
517.879	640
518.095	644
518.311	614
518.527	603
518.742	629
518.958	624
519.173	573
519.389	571
519.605	563
519.82	567
520.036	550
520.251	565
520.467	557
520.682	566
520.898	557
521.113	550
521.329	582
521.544	615
521.76	694
521.975	950
522.19	931
522.406	622
522.621	539
522.836	511
523.052	511
523.267	503
523.482	510
523.698	498
523.913	499
524.128	477
524.343	489
524.559	494
524.774	487
524.989	479
525.204	486
525.419	494
525.634	481
525.849	485
526.064	465
526.28	482
526.495	480
526.71	471
526.925	477
527.14	485
527.355	483
527.57	465
527.785	476
527.999	457
528.214	477
528.429	466
528.644	483
528.859	461
529.074	461
529.289	479
529.503	480
529.718	504
529.933	466
530.148	463
530.363	483
530.577	456
530.792	486
531.007	467
531.221	472
531.436	440
531.651	465
531.865	473
532.08	465
532.295	465
532.509	466
532.724	458
532.938	453
533.153	437
533.367	433
533.582	454
533.796	464
534.011	430
534.225	445
534.44	465
534.654	458
534.868	440
535.083	463
535.297	454
535.511	446
535.726	460
535.94	471
536.154	480
536.369	445
536.583	435
536.797	446
537.011	445
537.225	448
537.44	422
537.654	424
537.868	431
538.082	435
538.296	446
538.51	429
538.724	451
538.938	439
539.153	429
539.367	443
539.581	428
539.795	435
540.009	444
540.222	417
540.436	446
540.65	419
540.864	446
541.078	442
541.292	420
541.506	424
541.72	416
541.934	422
542.147	436
542.361	429
542.575	405
542.789	425
543.002	433
543.216	448
543.43	453
543.644	445
543.857	431
544.071	435
544.285	439
544.498	455
544.712	433
544.925	427
545.139	416
545.352	414
545.566	424
545.779	423
545.993	434
546.206	431
546.42	436
546.633	437
546.847	430
547.06	409
547.274	415
547.487	441
547.7	422
547.914	424
548.127	446
548.34	426
548.554	438
548.767	436
548.98	436
549.193	440
549.407	435
549.62	441
549.833	444
550.046	430
550.259	426
550.473	420
550.686	431
550.899	426
551.112	435
551.325	413
551.538	423
551.751	432
551.964	419
552.177	447
552.39	432
552.603	415
552.816	444
553.029	450
553.242	459
553.455	456
553.667	462
553.88	439
554.093	445
554.306	446
554.519	449
554.732	437
554.944	442
555.157	423
555.37	397
555.583	433
555.795	394
556.008	415
556.221	395
556.433	387
556.646	403
556.859	407
557.071	375
557.284	393
557.496	385
557.709	379
557.921	394
558.134	391
558.346	398
558.559	403
558.771	374
558.984	384
559.196	371
559.409	367
559.621	360
559.833	369
560.046	387
560.258	385
560.47	362
560.683	373
560.895	379
561.107	381
561.32	382
561.532	396
561.744	403
561.956	380
562.168	379
562.381	365
562.593	390
562.805	383
563.017	381
563.229	388
563.441	395
563.653	416
563.865	377
564.077	389
564.289	375
564.501	408
564.713	401
564.925	385
565.137	402
565.349	450
565.561	441
565.773	449
565.985	482
566.197	467
566.408	504
566.62	504
566.832	510
567.044	515
567.255	532
567.467	543
567.679	579
567.891	582
568.102	557
568.314	580
568.526	547
568.737	507
568.949	479
569.161	455
569.372	424
569.584	421
569.795	427
570.007	434
570.218	410
570.43	418
570.641	384
570.853	381
571.064	390
571.276	381
571.487	395
571.698	379
571.91	374
572.121	368
572.333	366
572.544	351
572.755	341
572.966	347
573.178	339
573.389	339
573.6	357
573.811	338
574.023	325
574.234	350
574.445	335
574.656	337
574.867	344
575.078	349
575.289	338
575.501	341
575.712	332
575.923	338
576.134	328
576.345	326
576.556	331
576.767	339
576.978	323
577.188	314
577.399	332
577.61	335
577.821	302
578.032	320
578.243	328
578.454	431
578.665	365
578.875	299
579.086	323
579.297	314
579.508	301
579.718	304
579.929	295
580.14	329
580.35	306
580.561	299
580.772	306
580.982	273
581.193	279
581.403	302
581.614	307
581.825	291
582.035	315
582.246	297
582.456	288
582.667	300
582.877	309
583.087	297
583.298	297
583.508	276
583.719	294
583.929	298
584.139	290
584.35	295
584.56	295
584.77	291
584.981	294
585.191	302
585.401	291
585.611	286
585.821	285
586.032	299
586.242	293
586.452	289
586.662	287
586.872	273
587.082	298
587.292	302
587.502	293
587.713	273
587.923	281
588.133	286
588.343	281
588.553	292
588.762	289
588.972	306
589.182	335
589.392	327
589.602	305
589.812	325
590.022	312
590.232	276
590.441	287
590.651	288
590.861	281
591.071	297
591.281	309
591.49	306
591.7	305
591.91	306
592.119	314
592.329	304
592.539	346
592.748	317
592.958	333
593.167	330
593.377	339
593.587	344
593.796	332
594.006	343
594.215	337
594.424	346
594.634	339
594.843	329
595.053	312
595.262	284
595.472	289
595.681	314
595.89	298
596.1	297
596.309	309
596.518	299
596.727	288
596.937	286
597.146	294
597.355	277
597.564	277
597.774	266
597.983	255
598.192	268
598.401	270
598.61	263
598.819	264
599.028	278
599.237	271
599.446	258
599.655	264
599.864	251
600.073	261
600.282	271
600.491	266
600.7	253
600.909	248
601.118	248
601.327	261
601.536	255
601.745	269
601.953	235
602.162	269
602.371	245
602.58	243
602.789	253
602.997	244
603.206	235
603.415	261
603.623	237
603.832	233
604.041	249
604.249	244
604.458	236
604.666	244
604.875	239
605.084	245
605.292	238
605.501	227
605.709	235
605.918	253
606.126	222
606.334	247
606.543	243
606.751	229
606.96	237
607.168	223
607.376	249
607.585	231
607.793	234
608.001	238
608.21	232
608.418	238
608.626	222
608.834	250
609.043	231
609.251	230
609.459	244
609.667	229
609.875	247
610.083	233
610.291	225
610.499	229
610.707	228
610.916	240
611.124	220
611.332	234
611.54	238
611.748	243
611.955	222
612.163	216
612.371	225
612.579	247
612.787	248
612.995	224
613.203	220
613.411	238
613.618	226
613.826	233
614.034	230
614.242	215
614.449	199
614.657	236
614.865	238
615.072	242
615.28	238
615.488	249
615.695	222
615.903	209
616.111	204
616.318	231
616.526	232
616.733	225
616.941	224
617.148	230
617.356	232
617.563	255
617.771	237
617.978	209
618.185	224
618.393	215
618.6	218
618.807	223
619.015	228
619.222	240
619.429	225
619.637	232
619.844	237
620.051	227
620.258	223
620.466	217
620.673	235
620.88	207
621.087	220
621.294	224
621.501	221
621.708	216
621.915	210
622.122	219
622.329	194
622.536	229
622.743	193
622.95	200
623.157	200
623.364	224
623.571	207
623.778	201
623.985	219
624.192	220
624.399	206
624.606	207
624.812	215
625.019	215
625.226	214
625.433	213
625.639	210
625.846	215
626.053	189
626.259	210
626.466	220
626.673	214
626.879	195
627.086	200
627.293	198
627.499	197
627.706	210
627.912	205
628.119	195
628.325	189
628.532	189
628.738	192
628.945	200
629.151	210
629.357	195
629.564	183
629.77	181
629.976	187
630.183	175
630.389	201
630.595	192
630.802	183
631.008	203
631.214	184
631.42	203
631.627	198
631.833	186
632.039	197
632.245	175
632.451	193
632.657	199
632.863	178
633.069	183
633.275	197
633.481	184
633.688	192
633.893	186
634.099	184
634.305	185
634.511	171
634.717	179
634.923	183
635.129	178
635.335	181
635.541	186
635.747	178
635.952	170
636.158	180
636.364	182
636.57	176
636.775	185
636.981	172
637.187	189
637.392	193
637.598	178
637.804	162
638.009	154
638.215	182
638.421	180
638.626	173
638.832	176
639.037	194
639.243	158
639.448	181
639.654	166
639.859	167
640.065	163
640.27	156
640.475	161
640.681	161
640.886	173
641.091	178
641.297	173
641.502	169
641.707	147
641.913	187
642.118	174
642.323	165
642.528	180
642.733	173
642.939	167
643.144	174
643.349	166
643.554	175
643.759	171
643.964	152
644.169	145
644.374	151
644.579	166
644.784	158
644.989	161
645.194	152
645.399	175
645.604	167
645.809	171
646.014	159
646.219	169
646.423	159
646.628	162
646.833	152
647.038	165
647.243	168
647.447	161
647.652	160
647.857	160
648.062	178
648.266	160
648.471	177
648.676	164
648.88	170
649.085	170
649.289	174
649.494	174
649.698	188
649.903	179
650.107	161
650.312	155
650.516	173
650.721	159
650.925	153
651.13	149
651.334	154
651.539	151
651.743	145
651.947	145
652.152	150
652.356	152
652.56	162
652.764	138
652.969	139
653.173	142
653.377	127
653.581	129
653.785	140
653.99	125
654.194	131
654.398	129
654.602	151
654.806	144
655.01	142
655.214	147
655.418	143
655.622	134
655.826	138
656.03	143
656.234	119
656.438	143
656.642	148
656.846	142
657.049	128
657.253	143
657.457	128
657.661	133
657.865	121
658.068	95
658.272	100
658.476	123
658.68	111
658.883	93
659.087	111
659.291	98
659.494	108
659.698	118
659.901	98
660.105	99
660.309	100
660.512	102
660.716	84
660.919	86
661.123	93
661.326	84
661.53	86
661.733	81
661.936	89
662.14	91
662.343	88
662.546	82
662.75	74
662.953	76
663.156	77
663.36	82
663.563	75
663.766	93
663.969	81
664.173	87
664.376	86
664.579	79
664.782	82
664.985	93
665.188	81
665.391	81
665.594	83
665.797	80
666	87
666.203	81
666.406	72
666.609	77
666.812	83
667.015	85
667.218	63
667.421	82
667.624	74
667.827	78
668.03	90
668.232	70
668.435	83
668.638	73
668.841	88
669.043	79
669.246	83
669.449	77
669.651	77
669.854	81
670.057	86
670.259	80
670.462	73
670.665	79
670.867	88
671.07	86
671.272	82
671.475	76
671.677	77
671.88	101
672.082	88
672.284	79
672.487	79
672.689	87
672.892	81
