Data from 1962.PennyLincolnUp.Lamp.En5.5.200Scan.071719.P1._HRD10591_13-52-56-060.txt Node
Date: Thu Jul 18 13:52:56 EDT 2019
User: cochatt
Spectrometer: HR+D1059
Trigger mode: 1
Integration Time (sec): 1.000000E-1
Scans to average: 1
Electric dark correction enabled: true
Nonlinearity correction enabled: false
Boxcar width: 0
XAxis mode: Wavelengths
Number of Pixels in Spectrum: 2048
>>>>>Begin Spectral Data<<<<<
223.165	-18
223.4	-18
223.635	-18
223.869	-15
224.104	-11
224.338	-8
224.573	-7
224.808	-33
225.042	1
225.277	-20
225.511	5
225.746	-1
225.98	10
226.215	23
226.449	14
226.683	13
226.918	24
227.152	23
227.387	45
227.621	40
227.856	55
228.09	45
228.324	53
228.559	52
228.793	65
229.027	89
229.262	88
229.496	88
229.73	100
229.964	117
230.199	103
230.433	99
230.667	79
230.901	99
231.136	104
231.37	104
231.604	113
231.838	111
232.072	115
232.306	124
232.541	116
232.775	111
233.009	101
233.243	111
233.477	98
233.711	113
233.945	127
234.179	108
234.413	129
234.647	108
234.881	99
235.115	121
235.349	112
235.583	117
235.817	106
236.051	104
236.285	106
236.519	118
236.753	108
236.987	117
237.221	129
237.455	149
237.689	147
237.922	126
238.156	125
238.39	108
238.624	111
238.858	97
239.091	120
239.325	124
239.559	121
239.793	116
240.027	125
240.26	127
240.494	148
240.728	131
240.961	123
241.195	133
241.429	141
241.662	130
241.896	120
242.13	111
242.363	111
242.597	120
242.83	102
243.064	135
243.298	136
243.531	138
243.765	136
243.998	109
244.232	123
244.465	149
244.699	125
244.932	133
245.166	134
245.399	140
245.633	140
245.866	131
246.099	141
246.333	140
246.566	134
246.8	139
247.033	144
247.266	126
247.5	150
247.733	141
247.966	164
248.2	141
248.433	135
248.666	150
248.899	141
249.133	165
249.366	162
249.599	181
249.832	165
250.066	167
250.299	161
250.532	151
250.765	170
250.998	161
251.231	165
251.465	169
251.698	177
251.931	159
252.164	167
252.397	173
252.63	143
252.863	171
253.096	184
253.329	181
253.562	167
253.795	172
254.028	178
254.261	161
254.494	184
254.727	187
254.96	194
255.193	204
255.426	201
255.659	205
255.892	191
256.124	180
256.357	173
256.59	195
256.823	174
257.056	173
257.289	188
257.521	180
257.754	191
257.987	185
258.22	182
258.452	171
258.685	173
258.918	180
259.151	177
259.383	179
259.616	170
259.849	191
260.081	193
260.314	196
260.547	186
260.779	202
261.012	190
261.244	197
261.477	206
261.71	194
261.942	195
262.175	191
262.407	188
262.64	182
262.872	201
263.105	190
263.337	194
263.57	193
263.802	189
264.035	196
264.267	187
264.499	190
264.732	186
264.964	188
265.197	203
265.429	199
265.661	190
265.894	193
266.126	197
266.358	200
266.591	194
266.823	219
267.055	215
267.287	196
267.52	187
267.752	221
267.984	215
268.216	201
268.448	214
268.681	195
268.913	202
269.145	219
269.377	227
269.609	225
269.841	229
270.073	231
270.306	228
270.538	232
270.77	236
271.002	236
271.234	234
271.466	243
271.698	245
271.93	247
272.162	251
272.394	236
272.626	241
272.858	228
273.09	246
273.322	251
273.553	226
273.785	219
274.017	226
274.249	223
274.481	220
274.713	238
274.945	245
275.176	231
275.408	239
275.64	225
275.872	227
276.104	241
276.335	242
276.567	234
276.799	248
277.031	230
277.262	263
277.494	257
277.726	238
277.957	257
278.189	249
278.421	229
278.652	242
278.884	256
279.115	238
279.347	250
279.579	255
279.81	244
280.042	250
280.273	249
280.505	242
280.736	243
280.968	263
281.199	262
281.431	254
281.662	262
281.894	252
282.125	261
282.356	257
282.588	280
282.819	269
283.051	240
283.282	264
283.513	266
283.745	251
283.976	252
284.207	264
284.439	266
284.67	276
284.901	261
285.132	270
285.364	267
285.595	263
285.826	247
286.057	269
286.288	262
286.52	262
286.751	266
286.982	258
287.213	274
287.444	284
287.675	267
287.906	261
288.138	274
288.369	286
288.6	274
288.831	249
289.062	271
289.293	274
289.524	268
289.755	299
289.986	268
290.217	283
290.448	279
290.679	291
290.91	255
291.141	262
291.371	266
291.602	277
291.833	291
292.064	283
292.295	276
292.526	283
292.757	282
292.987	305
293.218	284
293.449	283
293.68	269
293.91	258
294.141	276
294.372	268
294.603	281
294.833	290
295.064	285
295.295	275
295.525	290
295.756	274
295.987	295
296.217	276
296.448	297
296.679	277
296.909	287
297.14	291
297.37	295
297.601	281
297.831	281
298.062	277
298.292	287
298.523	289
298.753	285
298.984	290
299.214	300
299.445	305
299.675	316
299.905	300
300.136	293
300.366	289
300.597	288
300.827	301
301.057	311
301.288	313
301.518	297
301.748	302
301.979	301
302.209	311
302.439	314
302.669	306
302.9	287
303.13	324
303.36	305
303.59	299
303.82	324
304.051	334
304.281	301
304.511	333
304.741	312
304.971	317
305.201	292
305.431	318
305.661	309
305.891	319
306.121	311
306.352	300
306.582	294
306.812	303
307.042	295
307.272	312
307.502	313
307.731	319
307.961	309
308.191	304
308.421	301
308.651	300
308.881	300
309.111	300
309.341	315
309.571	298
309.8	317
310.03	315
310.26	319
310.49	329
310.72	339
310.949	335
311.179	347
311.409	337
311.639	343
311.868	319
312.098	333
312.328	342
312.557	329
312.787	322
313.017	335
313.246	334
313.476	330
313.706	342
313.935	349
314.165	322
314.394	357
314.624	350
314.853	353
315.083	335
315.312	347
315.542	335
315.771	326
316.001	342
316.23	342
316.46	324
316.689	333
316.919	314
317.148	358
317.377	328
317.607	347
317.836	331
318.065	327
318.295	349
318.524	338
318.753	336
318.983	339
319.212	348
319.441	330
319.67	348
319.9	337
320.129	346
320.358	355
320.587	322
320.816	355
321.046	349
321.275	357
321.504	345
321.733	347
321.962	355
322.191	358
322.42	362
322.649	353
322.878	356
323.108	347
323.337	375
323.566	389
323.795	397
324.024	401
324.253	442
324.482	526
324.71	737
324.939	980
325.168	904
325.397	529
325.626	437
325.855	392
326.084	397
326.313	382
326.542	392
326.77	391
326.999	430
327.228	537
327.457	680
327.686	797
327.914	614
328.143	478
328.372	433
328.6	408
328.829	394
329.058	404
329.287	421
329.515	397
329.744	402
329.972	412
330.201	403
330.43	408
330.658	423
330.887	402
331.115	407
331.344	427
331.572	396
331.801	387
332.03	379
332.258	409
332.486	409
332.715	396
332.943	390
333.172	410
333.4	415
333.629	453
333.857	422
334.085	450
334.314	439
334.542	443
334.771	460
334.999	423
335.227	429
335.455	424
335.684	440
335.912	444
336.14	394
336.369	408
336.597	402
336.825	416
337.053	402
337.281	408
337.51	428
337.738	421
337.966	379
338.194	398
338.422	394
338.65	393
338.878	391
339.106	393
339.334	369
339.562	398
339.79	387
340.018	375
340.246	382
340.474	373
340.702	393
340.93	397
341.158	386
341.386	369
341.614	381
341.842	395
342.07	391
342.298	377
342.526	391
342.754	388
342.981	376
343.209	379
343.437	387
343.665	406
343.893	409
344.12	424
344.348	418
344.576	413
344.804	395
345.031	379
345.259	377
345.487	386
345.714	396
345.942	386
346.17	395
346.397	365
346.625	371
346.853	375
347.08	367
347.308	373
347.535	362
347.763	379
347.99	361
348.218	396
348.445	381
348.673	368
348.9	374
349.128	378
349.355	377
349.583	374
349.81	358
350.037	359
350.265	355
350.492	374
350.72	362
350.947	373
351.174	369
351.402	347
351.629	373
351.856	357
352.083	357
352.311	369
352.538	371
352.765	357
352.992	353
353.22	363
353.447	362
353.674	358
353.901	363
354.128	370
354.355	361
354.583	349
354.81	350
355.037	358
355.264	363
355.491	368
355.718	381
355.945	367
356.172	350
356.399	373
356.626	369
356.853	341
357.08	367
357.307	351
357.534	362
357.761	360
357.988	353
358.215	350
358.441	362
358.668	357
358.895	338
359.122	353
359.349	380
359.576	371
359.802	381
360.029	364
360.256	387
360.483	374
360.709	364
360.936	362
361.163	375
361.39	365
361.616	378
361.843	358
362.07	375
362.296	381
362.523	382
362.749	377
362.976	369
363.203	363
363.429	368
363.656	359
363.882	381
364.109	369
364.335	370
364.562	362
364.788	376
365.015	372
365.241	369
365.468	365
365.694	359
365.92	363
366.147	361
366.373	364
366.599	363
366.826	345
367.052	350
367.278	361
367.505	353
367.731	353
367.957	370
368.184	375
368.41	373
368.636	377
368.862	381
369.089	380
369.315	375
369.541	372
369.767	371
369.993	365
370.219	367
370.445	374
370.672	362
370.898	359
371.124	374
371.35	377
371.576	379
371.802	370
372.028	388
372.254	394
372.48	351
372.706	377
372.932	357
373.158	371
373.384	391
373.61	377
373.835	365
374.061	367
374.287	380
374.513	397
374.739	386
374.965	391
375.191	388
375.416	385
375.642	382
375.868	372
376.094	389
376.319	365
376.545	375
376.771	358
376.997	380
377.222	385
377.448	356
377.674	383
377.899	387
378.125	380
378.35	371
378.576	365
378.802	389
379.027	382
379.253	354
379.478	365
379.704	370
379.929	373
380.155	361
380.38	365
380.606	388
380.831	381
381.057	408
381.282	386
381.507	387
381.733	376
381.958	369
382.184	370
382.409	375
382.634	383
382.86	382
383.085	413
383.31	402
383.535	389
383.761	404
383.986	409
384.211	403
384.436	417
384.662	420
384.887	413
385.112	409
385.337	414
385.562	392
385.787	424
386.013	427
386.238	455
386.463	425
386.688	429
386.913	429
387.138	425
387.363	440
387.588	433
387.813	428
388.038	413
388.263	415
388.488	420
388.713	425
388.938	446
389.163	419
389.387	446
389.612	425
389.837	406
390.062	413
390.287	425
390.512	436
390.736	421
390.961	407
391.186	423
391.411	457
391.636	466
391.86	447
392.085	461
392.31	468
392.534	471
392.759	445
392.984	453
393.208	435
393.433	449
393.658	444
393.882	449
394.107	439
394.331	437
394.556	422
394.78	439
395.005	462
395.229	445
395.454	442
395.678	455
395.903	467
396.127	476
396.352	466
396.576	430
396.801	436
397.025	454
397.249	450
397.474	454
397.698	472
397.922	455
398.147	469
398.371	468
398.595	490
398.82	500
399.044	502
399.268	546
399.492	586
399.717	616
399.941	626
400.165	634
400.389	616
400.613	547
400.837	525
401.062	531
401.286	521
401.51	488
401.734	502
401.958	523
402.182	509
402.406	507
402.63	505
402.854	525
403.078	514
403.302	539
403.526	524
403.75	526
403.974	516
404.198	507
404.422	521
404.645	545
404.869	516
405.093	553
405.317	563
405.541	593
405.765	551
405.988	539
406.212	542
406.436	522
406.66	565
406.883	547
407.107	555
407.331	587
407.555	638
407.778	619
408.002	608
408.226	584
408.449	547
408.673	567
408.896	581
409.12	594
409.344	561
409.567	528
409.791	539
410.014	510
410.238	530
410.461	525
410.685	531
410.908	531
411.132	543
411.355	548
411.578	543
411.802	518
412.025	506
412.249	505
412.472	514
412.695	543
412.919	535
413.142	510
413.365	493
413.589	494
413.812	492
414.035	518
414.258	513
414.482	485
414.705	501
414.928	512
415.151	488
415.374	506
415.597	482
415.821	483
416.044	483
416.267	478
416.49	491
416.713	470
416.936	469
417.159	471
417.382	485
417.605	490
417.828	476
418.051	467
418.274	479
418.497	469
418.72	479
418.943	485
419.166	497
419.389	534
419.611	518
419.834	498
420.057	522
420.28	483
420.503	471
420.726	492
420.948	499
421.171	513
421.394	532
421.617	519
421.839	472
422.062	511
422.285	497
422.507	526
422.73	568
422.953	572
423.175	517
423.398	516
423.621	530
423.843	500
424.066	525
424.288	515
424.511	530
424.733	555
424.956	615
425.178	571
425.401	558
425.623	594
425.846	525
426.068	491
426.291	509
426.513	515
426.735	508
426.958	515
427.18	594
427.402	634
427.625	698
427.847	597
428.069	546
428.292	497
428.514	506
428.736	468
428.958	488
429.181	455
429.403	473
429.625	469
429.847	473
430.069	525
430.292	542
430.514	489
430.736	443
430.958	490
431.18	464
431.402	480
431.624	465
431.846	446
432.068	466
432.29	457
432.512	466
432.734	479
432.956	462
433.178	477
433.4	476
433.622	484
433.844	468
434.066	451
434.287	458
434.509	464
434.731	477
434.953	483
435.175	510
435.397	506
435.618	500
435.84	541
436.062	547
436.284	601
436.505	542
436.727	505
436.949	476
437.17	493
437.392	475
437.614	461
437.835	458
438.057	541
438.278	574
438.5	578
438.721	621
438.943	634
439.165	521
439.386	488
439.608	484
439.829	498
440.05	505
440.272	509
440.493	498
440.715	477
440.936	469
441.158	471
441.379	470
441.6	495
441.822	514
442.043	533
442.264	567
442.486	582
442.707	519
442.928	515
443.149	518
443.371	522
443.592	524
443.813	604
444.034	638
444.255	583
444.476	548
444.698	537
444.919	553
445.14	642
445.361	569
445.582	537
445.803	548
446.024	592
446.245	606
446.466	557
446.687	501
446.908	495
447.129	477
447.35	462
447.571	445
447.792	436
448.013	459
448.234	468
448.455	482
448.675	547
448.896	633
449.117	504
449.338	514
449.559	545
449.779	660
450	565
450.221	468
450.442	448
450.662	443
450.883	451
451.104	449
451.324	437
451.545	425
451.766	439
451.986	413
452.207	411
452.428	424
452.648	433
452.869	402
453.089	404
453.31	438
453.53	397
453.751	409
453.971	402
454.192	411
454.412	396
454.633	396
454.853	419
455.073	409
455.294	417
455.514	454
455.734	427
455.955	413
456.175	415
456.395	393
456.616	414
456.836	423
457.056	379
457.276	379
457.497	401
457.717	407
457.937	406
458.157	428
458.377	407
458.598	440
458.818	442
459.038	503
459.258	510
459.478	458
459.698	465
459.918	472
460.138	492
460.358	454
460.578	489
460.798	508
461.018	531
461.238	486
461.458	478
461.678	505
461.898	503
462.118	499
462.338	561
462.558	514
462.777	532
462.997	549
463.217	566
463.437	578
463.657	563
463.876	553
464.096	521
464.316	536
464.536	549
464.755	541
464.975	529
465.195	534
465.414	525
465.634	515
465.854	478
466.073	452
466.293	450
466.512	458
466.732	445
466.951	437
467.171	455
467.391	458
467.61	417
467.829	453
468.049	455
468.268	457
468.488	418
468.707	436
468.927	433
469.146	434
469.365	422
469.585	425
469.804	427
470.023	441
470.243	457
470.462	467
470.681	456
470.901	445
471.12	438
471.339	456
471.558	460
471.777	454
471.997	452
472.216	437
472.435	453
472.654	438
472.873	430
473.092	425
473.311	436
473.53	437
473.749	434
473.968	454
474.187	493
474.406	500
474.625	461
474.844	443
475.063	441
475.282	449
475.501	437
475.72	451
475.939	462
476.158	459
476.377	460
476.596	440
476.814	472
477.033	482
477.252	481
477.471	489
477.69	462
477.908	490
478.127	478
478.346	513
478.564	505
478.783	487
479.002	502
479.22	528
479.439	526
479.658	539
479.876	526
480.095	539
480.313	546
480.532	539
480.751	554
480.969	553
481.188	527
481.406	547
481.624	547
481.843	525
482.061	517
482.28	521
482.498	517
482.717	507
482.935	506
483.153	526
483.372	501
483.59	526
483.808	532
484.027	505
484.245	507
484.463	485
484.681	533
484.9	524
485.118	537
485.336	511
485.554	524
485.772	560
485.99	538
486.209	553
486.427	511
486.645	541
486.863	538
487.081	519
487.299	551
487.517	552
487.735	548
487.953	539
488.171	568
488.389	540
488.607	563
488.825	549
489.043	527
489.261	559
489.479	542
489.696	544
489.914	553
490.132	557
490.35	541
490.568	541
490.786	565
491.003	563
491.221	573
491.439	561
491.657	556
491.874	574
492.092	577
492.31	606
492.527	568
492.745	610
492.963	598
493.18	607
493.398	588
493.615	612
493.833	591
494.05	625
494.268	589
494.485	592
494.703	595
494.92	586
495.138	602
495.355	597
495.573	621
495.79	611
496.008	615
496.225	610
496.442	594
496.66	620
496.877	627
497.094	625
497.312	620
497.529	641
497.746	655
497.963	673
498.181	693
498.398	723
498.615	732
498.832	759
499.049	793
499.267	781
499.484	855
499.701	886
499.918	957
500.135	1036
500.352	1095
500.569	1131
500.786	1137
501.003	1110
501.22	1046
501.437	954
501.654	897
501.871	889
502.088	824
502.305	813
502.522	755
502.739	733
502.956	701
503.172	686
503.389	696
503.606	665
503.823	663
504.04	655
504.256	635
504.473	663
504.69	663
504.907	671
505.123	612
505.34	613
505.557	590
505.773	582
505.99	581
506.207	581
506.423	576
506.64	570
506.856	566
507.073	580
507.289	568
507.506	542
507.722	569
507.939	539
508.155	563
508.372	543
508.588	530
508.805	513
509.021	525
509.238	540
509.454	509
509.67	536
509.887	521
510.103	529
510.319	527
510.536	571
510.752	695
510.968	612
511.184	528
511.401	516
511.617	516
511.833	492
512.049	531
512.265	512
512.481	517
512.698	503
512.914	502
513.13	498
513.346	501
513.562	482
513.778	500
513.994	519
514.21	514
514.426	519
514.642	532
514.858	545
515.074	561
515.29	585
515.506	651
515.721	604
515.937	549
516.153	547
516.369	537
516.585	565
516.801	545
517.016	566
517.232	582
517.448	573
517.664	589
517.879	602
518.095	583
518.311	582
518.527	562
518.742	563
518.958	556
519.173	536
519.389	523
519.605	515
519.82	525
520.036	523
520.251	513
520.467	532
520.682	499
520.898	509
521.113	546
521.329	519
521.544	542
521.76	577
521.975	715
522.19	727
522.406	549
522.621	495
522.836	482
523.052	478
523.267	487
523.482	482
523.698	475
523.913	445
524.128	442
524.343	457
524.559	482
524.774	447
524.989	451
525.204	477
525.419	446
525.634	449
525.849	437
526.064	449
526.28	419
526.495	437
526.71	426
526.925	435
527.14	452
527.355	450
527.57	462
527.785	452
527.999	458
528.214	471
528.429	468
528.644	426
528.859	454
529.074	448
529.289	442
529.503	462
529.718	466
529.933	445
530.148	455
530.363	466
530.577	429
530.792	437
531.007	435
531.221	439
531.436	440
531.651	426
531.865	430
532.08	450
532.295	443
532.509	425
532.724	447
532.938	407
533.153	407
533.367	440
533.582	448
533.796	427
534.011	417
534.225	413
534.44	425
534.654	419
534.868	426
535.083	441
535.297	428
535.511	422
535.726	429
535.94	444
536.154	422
536.369	407
536.583	432
536.797	418
537.011	422
537.225	413
537.44	407
537.654	403
537.868	415
538.082	394
538.296	417
538.51	414
538.724	407
538.938	433
539.153	408
539.367	407
539.581	401
539.795	403
540.009	406
540.222	400
540.436	397
540.65	400
540.864	413
541.078	409
541.292	403
541.506	405
541.72	407
541.934	399
542.147	420
542.361	394
542.575	403
542.789	405
543.002	406
543.216	386
543.43	413
543.644	417
543.857	408
544.071	379
544.285	403
544.498	417
544.712	418
544.925	426
545.139	401
545.352	409
545.566	393
545.779	401
545.993	420
546.206	395
546.42	424
546.633	419
546.847	419
547.06	398
547.274	399
547.487	405
547.7	428
547.914	393
548.127	409
548.34	394
548.554	412
548.767	417
548.98	422
549.193	428
549.407	419
549.62	415
549.833	413
550.046	417
550.259	429
550.473	407
550.686	430
550.899	426
551.112	399
551.325	389
551.538	409
551.751	396
551.964	400
552.177	417
552.39	404
552.603	423
552.816	429
553.029	414
553.242	429
553.455	419
553.667	440
553.88	427
554.093	425
554.306	410
554.519	440
554.732	390
554.944	397
555.157	407
555.37	394
555.583	377
555.795	387
556.008	398
556.221	378
556.433	386
556.646	375
556.859	365
557.071	375
557.284	383
557.496	387
557.709	371
557.921	389
558.134	353
558.346	362
558.559	356
558.771	361
558.984	358
559.196	340
559.409	340
559.621	362
559.833	355
560.046	376
560.258	346
560.47	357
560.683	357
560.895	353
561.107	353
561.32	370
561.532	364
561.744	365
561.956	358
562.168	344
562.381	365
562.593	379
562.805	358
563.017	379
563.229	381
563.441	367
563.653	362
563.865	370
564.077	366
564.289	375
564.501	381
564.713	403
564.925	400
565.137	409
565.349	398
565.561	402
565.773	405
565.985	425
566.197	454
566.408	434
566.62	476
566.832	493
567.044	500
567.255	499
567.467	506
567.679	507
567.891	547
568.102	557
568.314	532
568.526	523
568.737	492
568.949	453
569.161	424
569.372	395
569.584	380
569.795	411
570.007	420
570.218	399
570.43	391
570.641	380
570.853	395
571.064	374
571.276	353
571.487	363
571.698	357
571.91	363
572.121	359
572.333	352
572.544	329
572.755	335
572.966	356
573.178	340
573.389	342
573.6	323
573.811	334
574.023	338
574.234	315
574.445	329
574.656	322
574.867	327
575.078	318
575.289	317
575.501	305
575.712	305
575.923	304
576.134	298
576.345	298
576.556	321
576.767	317
576.978	294
577.188	298
577.399	299
577.61	298
577.821	301
578.032	313
578.243	303
578.454	381
578.665	323
578.875	295
579.086	293
579.297	312
579.508	310
579.718	290
579.929	299
580.14	300
580.35	289
580.561	305
580.772	292
580.982	294
581.193	283
581.403	296
581.614	317
581.825	300
582.035	292
582.246	281
582.456	290
582.667	299
582.877	289
583.087	300
583.298	300
583.508	300
583.719	291
583.929	270
584.139	277
584.35	270
584.56	295
584.77	284
584.981	300
585.191	290
585.401	268
585.611	288
585.821	297
586.032	294
586.242	291
586.452	273
586.662	264
586.872	301
587.082	276
587.292	280
587.502	276
587.713	286
587.923	293
588.133	292
588.343	269
588.553	288
588.762	290
588.972	303
589.182	362
589.392	356
589.602	327
589.812	341
590.022	315
590.232	301
590.441	299
590.651	292
590.861	293
591.071	284
591.281	309
591.49	287
591.7	289
591.91	294
592.119	296
592.329	318
592.539	308
592.748	309
592.958	326
593.167	330
593.377	316
593.587	346
593.796	329
594.006	355
594.215	323
594.424	314
594.634	290
594.843	316
595.053	316
595.262	310
595.472	296
595.681	292
595.89	294
596.1	292
596.309	281
596.518	288
596.727	257
596.937	257
597.146	287
597.355	277
597.564	257
597.774	249
597.983	255
598.192	272
598.401	252
598.61	261
598.819	262
599.028	265
599.237	268
599.446	254
599.655	249
599.864	263
600.073	256
600.282	250
600.491	233
600.7	249
600.909	231
601.118	244
601.327	259
601.536	261
601.745	236
601.953	251
602.162	234
602.371	235
602.58	253
602.789	238
602.997	245
603.206	231
603.415	243
603.623	222
603.832	251
604.041	230
604.249	247
604.458	231
604.666	222
604.875	241
605.084	225
605.292	244
605.501	248
605.709	234
605.918	238
606.126	225
606.334	231
606.543	225
606.751	235
606.96	242
607.168	228
607.376	219
607.585	235
607.793	234
608.001	237
608.21	210
608.418	222
608.626	219
608.834	223
609.043	222
609.251	223
609.459	211
609.667	233
609.875	229
610.083	218
610.291	243
610.499	226
610.707	238
610.916	237
611.124	239
611.332	236
611.54	241
611.748	223
611.955	231
612.163	234
612.371	208
612.579	226
612.787	200
612.995	241
613.203	232
613.411	225
613.618	226
613.826	220
614.034	219
614.242	229
614.449	212
614.657	217
614.865	214
615.072	228
615.28	218
615.488	221
615.695	224
615.903	235
616.111	226
616.318	222
616.526	233
616.733	223
616.941	221
617.148	228
617.356	207
617.563	225
617.771	232
617.978	228
618.185	230
618.393	219
618.6	225
618.807	217
619.015	229
619.222	226
619.429	234
619.637	226
619.844	235
620.051	207
620.258	219
620.466	211
620.673	207
620.88	203
621.087	213
621.294	215
621.501	219
621.708	216
621.915	206
622.122	226
622.329	206
622.536	201
622.743	216
622.95	210
623.157	194
623.364	210
623.571	205
623.778	208
623.985	224
624.192	212
624.399	215
624.606	209
624.812	217
625.019	215
625.226	204
625.433	220
625.639	207
625.846	191
626.053	197
626.259	198
626.466	194
626.673	190
626.879	187
627.086	193
627.293	205
627.499	203
627.706	198
627.912	193
628.119	205
628.325	198
628.532	186
628.738	201
628.945	188
629.151	199
629.357	196
629.564	179
629.77	191
629.976	189
630.183	195
630.389	192
630.595	181
630.802	205
631.008	188
631.214	201
631.42	182
631.627	199
631.833	203
632.039	183
632.245	189
632.451	186
632.657	186
632.863	185
633.069	183
633.275	192
633.481	173
633.688	169
633.893	161
634.099	178
634.305	172
634.511	182
634.717	178
634.923	182
635.129	170
635.335	180
635.541	170
635.747	169
635.952	181
636.158	166
636.364	177
636.57	165
636.775	170
636.981	181
637.187	189
637.392	188
637.598	186
637.804	165
638.009	185
638.215	169
638.421	182
638.626	163
638.832	175
639.037	178
639.243	168
639.448	167
639.654	171
639.859	159
640.065	163
640.27	180
640.475	163
640.681	195
640.886	161
641.091	173
641.297	163
641.502	172
641.707	162
641.913	159
642.118	163
642.323	156
642.528	162
642.733	177
642.939	164
643.144	155
643.349	173
643.554	188
643.759	173
643.964	156
644.169	186
644.374	164
644.579	153
644.784	165
644.989	151
645.194	148
645.399	179
645.604	157
645.809	173
646.014	172
646.219	162
646.423	163
646.628	160
646.833	165
647.038	171
647.243	162
647.447	169
647.652	171
647.857	165
648.062	169
648.266	162
648.471	173
648.676	162
648.88	167
649.085	172
649.289	168
649.494	161
649.698	169
649.903	172
650.107	170
650.312	154
650.516	151
650.721	157
650.925	159
651.13	158
651.334	142
651.539	154
651.743	151
651.947	164
652.152	154
652.356	148
652.56	150
652.764	168
652.969	144
653.173	148
653.377	140
653.581	147
653.785	137
653.99	123
654.194	150
654.398	160
654.602	148
654.806	139
655.01	139
655.214	148
655.418	152
655.622	147
655.826	141
656.03	151
656.234	164
656.438	161
656.642	161
656.846	156
657.049	152
657.253	140
657.457	145
657.661	130
657.865	135
658.068	129
658.272	114
658.476	118
658.68	107
658.883	117
659.087	113
659.291	115
659.494	104
659.698	91
659.901	94
660.105	103
660.309	102
660.512	92
660.716	96
660.919	88
661.123	94
661.326	91
661.53	86
661.733	98
661.936	91
662.14	73
662.343	92
662.546	81
662.75	96
662.953	87
663.156	85
663.36	97
663.563	93
663.766	85
663.969	83
664.173	90
664.376	82
664.579	81
664.782	83
664.985	76
665.188	73
665.391	84
665.594	81
665.797	93
666	85
666.203	85
666.406	88
666.609	95
666.812	65
667.015	85
667.218	90
667.421	81
667.624	82
667.827	71
668.03	78
668.232	82
668.435	81
668.638	96
668.841	76
669.043	84
669.246	82
669.449	75
669.651	86
669.854	89
670.057	99
670.259	81
670.462	89
670.665	85
670.867	79
671.07	81
671.272	72
671.475	87
671.677	92
671.88	82
672.082	88
672.284	77
672.487	83
672.689	90
672.892	81
