Data from 1963.PennyLincolnUp.Lamp.En5.5.200Scan.071719.P1._HRD10591_13-58-45-064.txt Node
Date: Thu Jul 18 13:58:45 EDT 2019
User: cochatt
Spectrometer: HR+D1059
Trigger mode: 1
Integration Time (sec): 1.000000E-1
Scans to average: 1
Electric dark correction enabled: true
Nonlinearity correction enabled: false
Boxcar width: 0
XAxis mode: Wavelengths
Number of Pixels in Spectrum: 2048
>>>>>Begin Spectral Data<<<<<
223.165	-24
223.4	-24
223.635	-24
223.869	-6
224.104	-12
224.338	-25
224.573	-3
224.808	-1
225.042	-12
225.277	7
225.511	-4
225.746	-1
225.98	5
226.215	9
226.449	4
226.683	20
226.918	14
227.152	29
227.387	26
227.621	30
227.856	38
228.09	51
228.324	58
228.559	68
228.793	78
229.027	82
229.262	111
229.496	91
229.73	123
229.964	157
230.199	118
230.433	121
230.667	101
230.901	106
231.136	118
231.37	124
231.604	113
231.838	123
232.072	96
232.306	102
232.541	124
232.775	124
233.009	119
233.243	132
233.477	137
233.711	132
233.945	124
234.179	117
234.413	120
234.647	139
234.881	117
235.115	125
235.349	118
235.583	134
235.817	132
236.051	130
236.285	139
236.519	129
236.753	136
236.987	136
237.221	170
237.455	197
237.689	155
237.922	142
238.156	136
238.39	125
238.624	136
238.858	131
239.091	141
239.325	125
239.559	138
239.793	129
240.027	141
240.26	148
240.494	156
240.728	163
240.961	145
241.195	155
241.429	157
241.662	142
241.896	137
242.13	149
242.363	156
242.597	141
242.83	151
243.064	157
243.298	154
243.531	150
243.765	132
243.998	151
244.232	139
244.465	162
244.699	165
244.932	164
245.166	162
245.399	167
245.633	167
245.866	170
246.099	161
246.333	162
246.566	153
246.8	168
247.033	173
247.266	165
247.5	180
247.733	189
247.966	172
248.2	189
248.433	187
248.666	191
248.899	196
249.133	202
249.366	210
249.599	205
249.832	195
250.066	195
250.299	198
250.532	199
250.765	216
250.998	228
251.231	239
251.465	226
251.698	226
251.931	217
252.164	227
252.397	226
252.63	220
252.863	207
253.096	219
253.329	244
253.562	243
253.795	222
254.028	214
254.261	238
254.494	233
254.727	248
254.96	277
255.193	266
255.426	269
255.659	219
255.892	236
256.124	238
256.357	254
256.59	228
256.823	229
257.056	236
257.289	229
257.521	227
257.754	233
257.987	221
258.22	230
258.452	222
258.685	217
258.918	230
259.151	225
259.383	230
259.616	221
259.849	232
260.081	246
260.314	279
260.547	279
260.779	261
261.012	267
261.244	257
261.477	247
261.71	244
261.942	236
262.175	258
262.407	266
262.64	229
262.872	230
263.105	236
263.337	254
263.57	243
263.802	239
264.035	242
264.267	236
264.499	261
264.732	241
264.964	254
265.197	220
265.429	248
265.661	234
265.894	239
266.126	225
266.358	250
266.591	259
266.823	267
267.055	258
267.287	270
267.52	262
267.752	254
267.984	260
268.216	257
268.448	272
268.681	284
268.913	283
269.145	276
269.377	305
269.609	282
269.841	297
270.073	310
270.306	292
270.538	322
270.77	322
271.002	318
271.234	316
271.466	314
271.698	342
271.93	328
272.162	328
272.394	323
272.626	305
272.858	303
273.09	302
273.322	309
273.553	298
273.785	279
274.017	283
274.249	305
274.481	290
274.713	285
274.945	305
275.176	306
275.408	306
275.64	300
275.872	290
276.104	300
276.335	283
276.567	326
276.799	321
277.031	339
277.262	351
277.494	354
277.726	339
277.957	326
278.189	316
278.421	295
278.652	308
278.884	309
279.115	302
279.347	301
279.579	306
279.81	327
280.042	327
280.273	322
280.505	308
280.736	318
280.968	300
281.199	302
281.431	329
281.662	309
281.894	326
282.125	322
282.356	319
282.588	347
282.819	354
283.051	329
283.282	330
283.513	323
283.745	340
283.976	338
284.207	344
284.439	339
284.67	350
284.901	339
285.132	344
285.364	347
285.595	326
285.826	328
286.057	344
286.288	340
286.52	332
286.751	344
286.982	334
287.213	343
287.444	344
287.675	357
287.906	340
288.138	365
288.369	346
288.6	369
288.831	366
289.062	349
289.293	338
289.524	342
289.755	343
289.986	367
290.217	369
290.448	348
290.679	371
290.91	362
291.141	341
291.371	372
291.602	352
291.833	339
292.064	353
292.295	357
292.526	356
292.757	342
292.987	361
293.218	341
293.449	358
293.68	368
293.91	363
294.141	383
294.372	359
294.603	350
294.833	349
295.064	357
295.295	380
295.525	371
295.756	380
295.987	367
296.217	389
296.448	389
296.679	379
296.909	371
297.14	349
297.37	369
297.601	367
297.831	369
298.062	377
298.292	395
298.523	386
298.753	397
298.984	381
299.214	393
299.445	394
299.675	406
299.905	396
300.136	383
300.366	376
300.597	376
300.827	394
301.057	416
301.288	414
301.518	401
301.748	422
301.979	412
302.209	427
302.439	419
302.669	391
302.9	409
303.13	398
303.36	407
303.59	433
303.82	426
304.051	421
304.281	409
304.511	425
304.741	411
304.971	399
305.201	404
305.431	405
305.661	415
305.891	420
306.121	430
306.352	413
306.582	419
306.812	414
307.042	417
307.272	409
307.502	406
307.731	416
307.961	417
308.191	433
308.421	405
308.651	388
308.881	398
309.111	426
309.341	408
309.571	433
309.8	441
310.03	415
310.26	408
310.49	440
310.72	446
310.949	437
311.179	454
311.409	422
311.639	437
311.868	447
312.098	462
312.328	452
312.557	456
312.787	482
313.017	464
313.246	454
313.476	457
313.706	445
313.935	459
314.165	453
314.394	475
314.624	478
314.853	468
315.083	458
315.312	447
315.542	449
315.771	450
316.001	449
316.23	441
316.46	451
316.689	462
316.919	437
317.148	455
317.377	452
317.607	459
317.836	462
318.065	452
318.295	466
318.524	457
318.753	432
318.983	442
319.212	444
319.441	437
319.67	444
319.9	439
320.129	433
320.358	482
320.587	454
320.816	462
321.046	456
321.275	470
321.504	467
321.733	474
321.962	474
322.191	492
322.42	494
322.649	483
322.878	499
323.108	503
323.337	498
323.566	539
323.795	533
324.024	552
324.253	628
324.482	783
324.71	1097
324.939	1600
325.168	1438
325.397	786
325.626	604
325.855	561
326.084	523
326.313	538
326.542	543
326.77	555
326.999	622
327.228	753
327.457	1051
327.686	1257
327.914	888
328.143	661
328.372	607
328.6	585
328.829	577
329.058	574
329.287	590
329.515	562
329.744	554
329.972	542
330.201	570
330.43	591
330.658	611
330.887	630
331.115	615
331.344	606
331.572	574
331.801	549
332.03	571
332.258	577
332.486	595
332.715	567
332.943	568
333.172	586
333.4	611
333.629	614
333.857	638
334.085	627
334.314	637
334.542	662
334.771	655
334.999	635
335.227	598
335.455	579
335.684	599
335.912	578
336.14	567
336.369	555
336.597	583
336.825	561
337.053	565
337.281	561
337.51	564
337.738	571
337.966	543
338.194	534
338.422	523
338.65	544
338.878	565
339.106	563
339.334	539
339.562	558
339.79	522
340.018	531
340.246	500
340.474	513
340.702	538
340.93	531
341.158	551
341.386	548
341.614	534
341.842	504
342.07	528
342.298	501
342.526	514
342.754	526
342.981	522
343.209	533
343.437	524
343.665	557
343.893	566
344.12	564
344.348	590
344.576	594
344.804	554
345.031	545
345.259	541
345.487	517
345.714	517
345.942	512
346.17	503
346.397	493
346.625	511
346.853	508
347.08	497
347.308	513
347.535	492
347.763	489
347.99	506
348.218	500
348.445	501
348.673	501
348.9	512
349.128	516
349.355	498
349.583	484
349.81	503
350.037	493
350.265	500
350.492	497
350.72	491
350.947	473
351.174	511
351.402	492
351.629	480
351.856	505
352.083	506
352.311	488
352.538	488
352.765	495
352.992	515
353.22	476
353.447	481
353.674	474
353.901	510
354.128	497
354.355	475
354.583	476
354.81	499
355.037	475
355.264	489
355.491	496
355.718	491
355.945	483
356.172	492
356.399	497
356.626	485
356.853	496
357.08	487
357.307	496
357.534	496
357.761	509
357.988	477
358.215	473
358.441	472
358.668	500
358.895	493
359.122	493
359.349	488
359.576	507
359.802	513
360.029	524
360.256	526
360.483	510
360.709	488
360.936	508
361.163	477
361.39	485
361.616	508
361.843	507
362.07	480
362.296	501
362.523	525
362.749	482
362.976	490
363.203	482
363.429	491
363.656	493
363.882	494
364.109	499
364.335	511
364.562	491
364.788	482
365.015	482
365.241	485
365.468	474
365.694	488
365.92	514
366.147	499
366.373	472
366.599	460
366.826	488
367.052	490
367.278	481
367.505	494
367.731	493
367.957	482
368.184	491
368.41	487
368.636	515
368.862	495
369.089	501
369.315	485
369.541	511
369.767	510
369.993	503
370.219	507
370.445	498
370.672	495
370.898	505
371.124	490
371.35	529
371.576	511
371.802	508
372.028	519
372.254	534
372.48	510
372.706	519
372.932	542
373.158	517
373.384	517
373.61	528
373.835	501
374.061	510
374.287	518
374.513	535
374.739	544
374.965	538
375.191	533
375.416	541
375.642	541
375.868	523
376.094	527
376.319	522
376.545	522
376.771	501
376.997	513
377.222	530
377.448	507
377.674	527
377.899	487
378.125	527
378.35	525
378.576	521
378.802	517
379.027	500
379.253	514
379.478	503
379.704	513
379.929	509
380.155	499
380.38	508
380.606	521
380.831	517
381.057	519
381.282	523
381.507	517
381.733	556
381.958	518
382.184	510
382.409	497
382.634	531
382.86	534
383.085	552
383.31	555
383.535	517
383.761	565
383.986	563
384.211	566
384.436	567
384.662	571
384.887	601
385.112	590
385.337	590
385.562	587
385.787	563
386.013	612
386.238	595
386.463	602
386.688	589
386.913	601
387.138	595
387.363	606
387.588	591
387.813	590
388.038	579
388.263	613
388.488	602
388.713	599
388.938	591
389.163	571
389.387	581
389.612	584
389.837	577
390.062	552
390.287	584
390.512	589
390.736	575
390.961	614
391.186	617
391.411	621
391.636	623
391.86	616
392.085	642
392.31	655
392.534	634
392.759	646
392.984	612
393.208	629
393.433	593
393.658	601
393.882	621
394.107	596
394.331	618
394.556	614
394.78	628
395.005	607
395.229	621
395.454	620
395.678	661
395.903	657
396.127	679
396.352	635
396.576	620
396.801	625
397.025	641
397.249	654
397.474	661
397.698	653
397.922	652
398.147	669
398.371	682
398.595	680
398.82	706
399.044	738
399.268	783
399.492	866
399.717	949
399.941	951
400.165	914
400.389	882
400.613	792
400.837	720
401.062	750
401.286	732
401.51	690
401.734	717
401.958	699
402.182	726
402.406	729
402.63	738
402.854	733
403.078	751
403.302	771
403.526	797
403.75	760
403.974	764
404.198	778
404.422	804
404.645	779
404.869	784
405.093	801
405.317	801
405.541	828
405.765	782
405.988	775
406.212	779
406.436	784
406.66	834
406.883	795
407.107	830
407.331	866
407.555	973
407.778	947
408.002	884
408.226	833
408.449	838
408.673	822
408.896	845
409.12	848
409.344	776
409.567	759
409.791	770
410.014	757
410.238	753
410.461	782
410.685	750
410.908	748
411.132	773
411.355	795
411.578	783
411.802	743
412.025	749
412.249	761
412.472	749
412.695	785
412.919	753
413.142	715
413.365	723
413.589	706
413.812	696
414.035	696
414.258	716
414.482	698
414.705	723
414.928	714
415.151	696
415.374	712
415.597	684
415.821	708
416.044	706
416.267	690
416.49	685
416.713	679
416.936	692
417.159	695
417.382	697
417.605	684
417.828	712
418.051	708
418.274	709
418.497	707
418.72	717
418.943	694
419.166	750
419.389	775
419.611	783
419.834	759
420.057	731
420.28	711
420.503	715
420.726	730
420.948	718
421.171	741
421.394	760
421.617	723
421.839	712
422.062	706
422.285	711
422.507	773
422.73	834
422.953	812
423.175	743
423.398	780
423.621	746
423.843	756
424.066	767
424.288	783
424.511	766
424.733	812
424.956	855
425.178	833
425.401	834
425.623	847
425.846	739
426.068	735
426.291	726
426.513	729
426.735	716
426.958	749
427.18	810
427.402	902
427.625	986
427.847	846
428.069	782
428.292	708
428.514	695
428.736	654
428.958	664
429.181	673
429.403	642
429.625	634
429.847	685
430.069	754
430.292	721
430.514	662
430.736	652
430.958	645
431.18	652
431.402	650
431.624	637
431.846	642
432.068	637
432.29	662
432.512	651
432.734	656
432.956	642
433.178	649
433.4	662
433.622	647
433.844	657
434.066	662
434.287	657
434.509	684
434.731	685
434.953	701
435.175	714
435.397	701
435.618	743
435.84	734
436.062	793
436.284	855
436.505	745
436.727	691
436.949	663
437.17	652
437.392	654
437.614	668
437.835	673
438.057	750
438.278	828
438.5	824
438.721	861
438.943	860
439.165	700
439.386	681
439.608	703
439.829	675
440.05	733
440.272	718
440.493	710
440.715	693
440.936	675
441.158	682
441.379	680
441.6	711
441.822	709
442.043	740
442.264	817
442.486	833
442.707	785
442.928	748
443.149	746
443.371	770
443.592	806
443.813	850
444.034	897
444.255	831
444.476	799
444.698	809
444.919	818
445.14	897
445.361	837
445.582	796
445.803	811
446.024	876
446.245	834
446.466	791
446.687	729
446.908	699
447.129	664
447.35	649
447.571	634
447.792	637
448.013	625
448.234	650
448.455	675
448.675	725
448.896	884
449.117	747
449.338	732
449.559	798
449.779	897
450	745
450.221	659
450.442	633
450.662	641
450.883	617
451.104	672
451.324	624
451.545	606
451.766	605
451.986	611
452.207	582
452.428	580
452.648	587
452.869	577
453.089	592
453.31	615
453.53	602
453.751	587
453.971	590
454.192	629
454.412	598
454.633	583
454.853	582
455.073	572
455.294	609
455.514	601
455.734	628
455.955	585
456.175	563
456.395	541
456.616	567
456.836	547
457.056	550
457.276	549
457.497	558
457.717	551
457.937	580
458.157	581
458.377	586
458.598	604
458.818	644
459.038	702
459.258	714
459.478	659
459.698	663
459.918	669
460.138	680
460.358	701
460.578	711
460.798	724
461.018	703
461.238	689
461.458	685
461.678	693
461.898	709
462.118	719
462.338	742
462.558	764
462.777	791
462.997	806
463.217	896
463.437	871
463.657	829
463.876	780
464.096	774
464.316	775
464.536	786
464.755	769
464.975	755
465.195	747
465.414	787
465.634	727
465.854	689
466.073	649
466.293	649
466.512	637
466.732	634
466.951	635
467.171	606
467.391	627
467.61	623
467.829	617
468.049	640
468.268	625
468.488	615
468.707	595
468.927	576
469.146	590
469.365	607
469.585	599
469.804	611
470.023	631
470.243	642
470.462	653
470.681	661
470.901	652
471.12	659
471.339	649
471.558	620
471.777	619
471.997	622
472.216	626
472.435	647
472.654	616
472.873	607
473.092	609
473.311	610
473.53	605
473.749	611
473.968	622
474.187	703
474.406	709
474.625	649
474.844	623
475.063	597
475.282	621
475.501	616
475.72	621
475.939	626
476.158	625
476.377	644
476.596	617
476.814	631
477.033	650
477.252	642
477.471	662
477.69	694
477.908	682
478.127	722
478.346	702
478.564	712
478.783	703
479.002	739
479.22	749
479.439	733
479.658	746
479.876	736
480.095	758
480.313	812
480.532	833
480.751	813
480.969	802
481.188	840
481.406	837
481.624	798
481.843	737
482.061	722
482.28	732
482.498	699
482.717	707
482.935	692
483.153	717
483.372	698
483.59	700
483.808	712
484.027	720
484.245	694
484.463	714
484.681	728
484.9	724
485.118	735
485.336	713
485.554	741
485.772	744
485.99	768
486.209	762
486.427	782
486.645	763
486.863	773
487.081	754
487.299	768
487.517	781
487.735	744
487.953	767
488.171	759
488.389	744
488.607	777
488.825	759
489.043	749
489.261	769
489.479	772
489.696	772
489.914	784
490.132	773
490.35	784
490.568	819
490.786	793
491.003	808
491.221	819
491.439	827
491.657	822
491.874	830
492.092	827
492.31	839
492.527	838
492.745	830
492.963	857
493.18	893
493.398	843
493.615	893
493.833	903
494.05	872
494.268	891
494.485	885
494.703	856
494.92	878
495.138	882
495.355	873
495.573	921
495.79	860
496.008	870
496.225	870
496.442	898
496.66	874
496.877	886
497.094	913
497.312	953
497.529	937
497.746	931
497.963	1018
498.181	1035
498.398	1016
498.615	1079
498.832	1111
499.049	1150
499.267	1220
499.484	1262
499.701	1405
499.918	1481
500.135	1593
500.352	1763
500.569	1804
500.786	1807
501.003	1743
501.22	1598
501.437	1507
501.654	1399
501.871	1340
502.088	1273
502.305	1171
502.522	1126
502.739	1109
502.956	1061
503.172	1041
503.389	999
503.606	982
503.823	974
504.04	936
504.256	982
504.473	981
504.69	1003
504.907	950
505.123	914
505.34	890
505.557	873
505.773	855
505.99	872
506.207	819
506.423	831
506.64	834
506.856	821
507.073	819
507.289	811
507.506	782
507.722	790
507.939	819
508.155	795
508.372	763
508.588	760
508.805	802
509.021	760
509.238	789
509.454	779
509.67	787
509.887	777
510.103	750
510.319	750
510.536	833
510.752	1157
510.968	998
511.184	743
511.401	726
511.617	737
511.833	731
512.049	727
512.265	717
512.481	725
512.698	730
512.914	718
513.13	740
513.346	712
513.562	741
513.778	710
513.994	740
514.21	754
514.426	742
514.642	787
514.858	772
515.074	815
515.29	877
515.506	1157
515.721	1037
515.937	825
516.153	817
516.369	759
516.585	800
516.801	807
517.016	806
517.232	874
517.448	894
517.664	873
517.879	886
518.095	881
518.311	909
518.527	862
518.742	841
518.958	798
519.173	791
519.389	776
519.605	771
519.82	738
520.036	753
520.251	781
520.467	772
520.682	782
520.898	758
521.113	755
521.329	793
521.544	809
521.76	892
521.975	1322
522.19	1405
522.406	909
522.621	769
522.836	713
523.052	699
523.267	659
523.482	677
523.698	627
523.913	648
524.128	657
524.343	651
524.559	669
524.774	628
524.989	645
525.204	631
525.419	660
525.634	633
525.849	612
526.064	634
526.28	617
526.495	631
526.71	631
526.925	641
527.14	623
527.355	603
527.57	641
527.785	619
527.999	621
528.214	617
528.429	626
528.644	643
528.859	614
529.074	628
529.289	643
529.503	679
529.718	649
529.933	628
530.148	623
530.363	619
530.577	625
530.792	616
531.007	614
531.221	630
531.436	610
531.651	602
531.865	616
532.08	623
532.295	625
532.509	609
532.724	607
532.938	616
533.153	610
533.367	627
533.582	619
533.796	616
534.011	604
534.225	592
534.44	594
534.654	595
534.868	600
535.083	597
535.297	613
535.511	591
535.726	617
535.94	605
536.154	591
536.369	587
536.583	581
536.797	588
537.011	605
537.225	585
537.44	580
537.654	576
537.868	590
538.082	575
538.296	570
538.51	565
538.724	577
538.938	563
539.153	563
539.367	562
539.581	587
539.795	561
540.009	564
540.222	568
540.436	559
540.65	559
540.864	583
541.078	572
541.292	576
541.506	550
541.72	565
541.934	556
542.147	563
542.361	549
542.575	551
542.789	565
543.002	554
543.216	567
543.43	583
543.644	554
543.857	565
544.071	577
544.285	587
544.498	558
544.712	573
544.925	563
545.139	577
545.352	574
545.566	559
545.779	574
545.993	576
546.206	587
546.42	590
546.633	588
546.847	579
547.06	549
547.274	557
547.487	552
547.7	559
547.914	558
548.127	563
548.34	593
548.554	575
548.767	578
548.98	572
549.193	577
549.407	570
549.62	575
549.833	583
550.046	578
550.259	555
550.473	601
550.686	569
550.899	554
551.112	541
551.325	533
551.538	556
551.751	591
551.964	572
552.177	576
552.39	578
552.603	553
552.816	580
553.029	593
553.242	600
553.455	638
553.667	611
553.88	629
554.093	613
554.306	612
554.519	600
554.732	569
554.944	558
555.157	561
555.37	562
555.583	539
555.795	533
556.008	516
556.221	506
556.433	532
556.646	519
556.859	506
557.071	497
557.284	495
557.496	500
557.709	515
557.921	517
558.134	479
558.346	519
558.559	486
558.771	496
558.984	503
559.196	498
559.409	492
559.621	489
559.833	498
560.046	497
560.258	492
560.47	500
560.683	502
560.895	485
561.107	509
561.32	490
561.532	486
561.744	522
561.956	498
562.168	492
562.381	505
562.593	490
562.805	501
563.017	469
563.229	495
563.441	486
563.653	515
563.865	502
564.077	509
564.289	526
564.501	545
564.713	550
564.925	545
565.137	561
565.349	533
565.561	581
565.773	587
565.985	615
566.197	613
566.408	656
566.62	679
566.832	735
567.044	748
567.255	718
567.467	757
567.679	781
567.891	820
568.102	845
568.314	829
568.526	761
568.737	698
568.949	655
569.161	639
569.372	594
569.584	574
569.795	545
570.007	562
570.218	554
570.43	562
570.641	515
570.853	527
571.064	506
571.276	500
571.487	512
571.698	500
571.91	477
572.121	483
572.333	463
572.544	439
572.755	436
572.966	426
573.178	426
573.389	452
573.6	443
573.811	430
574.023	443
574.234	425
574.445	413
574.656	428
574.867	427
575.078	433
575.289	408
575.501	423
575.712	395
575.923	413
576.134	405
576.345	421
576.556	411
576.767	394
576.978	408
577.188	419
577.399	425
577.61	397
577.821	404
578.032	405
578.243	431
578.454	562
578.665	474
578.875	389
579.086	398
579.297	398
579.508	395
579.718	390
579.929	376
580.14	379
580.35	384
580.561	394
580.772	378
580.982	382
581.193	389
581.403	386
581.614	383
581.825	384
582.035	366
582.246	369
582.456	372
582.667	380
582.877	388
583.087	399
583.298	378
583.508	351
583.719	367
583.929	365
584.139	376
584.35	365
584.56	374
584.77	381
584.981	376
585.191	364
585.401	379
585.611	364
585.821	364
586.032	371
586.242	379
586.452	368
586.662	357
586.872	365
587.082	389
587.292	377
587.502	357
587.713	358
587.923	359
588.133	349
588.343	356
588.553	349
588.762	351
588.972	356
589.182	379
589.392	373
589.602	385
589.812	370
590.022	379
590.232	382
590.441	390
590.651	393
590.861	387
591.071	362
591.281	378
591.49	377
591.7	403
591.91	393
592.119	389
592.329	420
592.539	423
592.748	398
592.958	446
593.167	432
593.377	420
593.587	441
593.796	454
594.006	435
594.215	456
594.424	443
594.634	449
594.843	442
595.053	418
595.262	397
595.472	411
595.681	383
595.89	386
596.1	386
596.309	373
596.518	362
596.727	353
596.937	337
597.146	346
597.355	354
597.564	364
597.774	340
597.983	336
598.192	322
598.401	329
598.61	325
598.819	339
599.028	343
599.237	335
599.446	323
599.655	323
599.864	329
600.073	323
600.282	329
600.491	322
600.7	317
600.909	305
601.118	317
601.327	325
601.536	327
601.745	312
601.953	308
602.162	303
602.371	309
602.58	292
602.789	316
602.997	305
603.206	301
603.415	287
603.623	300
603.832	312
604.041	308
604.249	296
604.458	302
604.666	309
604.875	307
605.084	293
605.292	299
605.501	293
605.709	301
605.918	320
606.126	297
606.334	301
606.543	315
606.751	318
606.96	299
607.168	302
607.376	312
607.585	303
607.793	289
608.001	290
608.21	310
608.418	302
608.626	296
608.834	301
609.043	283
609.251	273
609.459	280
609.667	285
609.875	309
610.083	292
610.291	308
610.499	281
610.707	307
610.916	300
611.124	302
611.332	297
611.54	295
611.748	292
611.955	287
612.163	272
612.371	312
612.579	288
612.787	281
612.995	276
613.203	298
613.411	283
613.618	286
613.826	277
614.034	299
614.242	284
614.449	281
614.657	273
614.865	292
615.072	285
615.28	282
615.488	296
615.695	285
615.903	299
616.111	269
616.318	300
616.526	305
616.733	293
616.941	302
617.148	288
617.356	289
617.563	292
617.771	289
617.978	282
618.185	289
618.393	281
618.6	279
618.807	287
619.015	291
619.222	271
619.429	289
619.637	281
619.844	267
620.051	293
620.258	269
620.466	270
620.673	253
620.88	267
621.087	264
621.294	276
621.501	275
621.708	275
621.915	269
622.122	257
622.329	266
622.536	267
622.743	266
622.95	251
623.157	261
623.364	239
623.571	275
623.778	279
623.985	263
624.192	249
624.399	257
624.606	242
624.812	254
625.019	242
625.226	261
625.433	262
625.639	236
625.846	249
626.053	259
626.259	231
626.466	263
626.673	247
626.879	245
627.086	259
627.293	257
627.499	256
627.706	220
627.912	241
628.119	256
628.325	257
628.532	241
628.738	225
628.945	235
629.151	234
629.357	223
629.564	237
629.77	248
629.976	236
630.183	248
630.389	228
630.595	232
630.802	217
631.008	236
631.214	230
631.42	214
631.627	231
631.833	219
632.039	236
632.245	233
632.451	215
632.657	228
632.863	240
633.069	226
633.275	225
633.481	216
633.688	222
633.893	231
634.099	225
634.305	219
634.511	216
634.717	229
634.923	227
635.129	214
635.335	212
635.541	213
635.747	223
635.952	218
636.158	215
636.364	209
636.57	215
636.775	214
636.981	205
637.187	206
637.392	206
637.598	209
637.804	205
638.009	204
638.215	212
638.421	195
638.626	217
638.832	205
639.037	200
639.243	227
639.448	222
639.654	207
639.859	211
640.065	213
640.27	222
640.475	217
640.681	193
640.886	187
641.091	202
641.297	202
641.502	207
641.707	188
641.913	179
642.118	189
642.323	213
642.528	194
642.733	200
642.939	198
643.144	199
643.349	205
643.554	200
643.759	201
643.964	197
644.169	207
644.374	196
644.579	183
644.784	196
644.989	204
645.194	207
645.399	204
645.604	191
645.809	187
646.014	192
646.219	195
646.423	187
646.628	200
646.833	186
647.038	200
647.243	179
647.447	193
647.652	190
647.857	190
648.062	191
648.266	199
648.471	220
648.676	196
648.88	194
649.085	204
649.289	196
649.494	193
649.698	215
649.903	204
650.107	181
650.312	183
650.516	169
650.721	181
650.925	186
651.13	181
651.334	174
651.539	170
651.743	158
651.947	157
652.152	173
652.356	151
652.56	169
652.764	139
652.969	166
653.173	152
653.377	170
653.581	151
653.785	141
653.99	142
654.194	171
654.398	151
654.602	153
654.806	161
655.01	169
655.214	154
655.418	145
655.622	142
655.826	141
656.03	161
656.234	170
656.438	163
656.642	163
656.846	161
657.049	140
657.253	133
657.457	135
657.661	158
657.865	131
658.068	116
658.272	119
658.476	116
658.68	115
658.883	103
659.087	92
659.291	118
659.494	102
659.698	99
659.901	102
660.105	100
660.309	104
660.512	107
660.716	118
660.919	106
661.123	92
661.326	95
661.53	101
661.733	94
661.936	84
662.14	93
662.343	88
662.546	95
662.75	94
662.953	86
663.156	97
663.36	81
663.563	92
663.766	86
663.969	92
664.173	88
664.376	70
664.579	80
664.782	89
664.985	72
665.188	83
665.391	77
665.594	87
665.797	85
666	93
666.203	89
666.406	85
666.609	89
666.812	70
667.015	90
667.218	76
667.421	85
667.624	89
667.827	73
668.03	85
668.232	91
668.435	86
668.638	74
668.841	79
669.043	90
669.246	80
669.449	92
669.651	72
669.854	85
670.057	77
670.259	66
670.462	75
670.665	69
670.867	82
671.07	86
671.272	74
671.475	76
671.677	85
671.88	83
672.082	84
672.284	78
672.487	85
672.689	85
672.892	87
