Data from 1963.PennyLincolnUp.Lamp.En5.5.200Scan.071719.P1._HRD10591_13-59-22-063.txt Node
Date: Thu Jul 18 13:59:22 EDT 2019
User: cochatt
Spectrometer: HR+D1059
Trigger mode: 1
Integration Time (sec): 1.000000E-1
Scans to average: 1
Electric dark correction enabled: true
Nonlinearity correction enabled: false
Boxcar width: 0
XAxis mode: Wavelengths
Number of Pixels in Spectrum: 2048
>>>>>Begin Spectral Data<<<<<
223.165	-19
223.4	-19
223.635	-19
223.869	-11
224.104	-17
224.338	-8
224.573	-18
224.808	-6
225.042	-11
225.277	-1
225.511	0
225.746	8
225.98	11
226.215	-1
226.449	12
226.683	3
226.918	32
227.152	26
227.387	34
227.621	47
227.856	61
228.09	45
228.324	58
228.559	55
228.793	64
229.027	102
229.262	117
229.496	127
229.73	132
229.964	147
230.199	131
230.433	124
230.667	107
230.901	123
231.136	127
231.37	122
231.604	126
231.838	128
232.072	117
232.306	114
232.541	136
232.775	141
233.009	116
233.243	130
233.477	116
233.711	125
233.945	126
234.179	126
234.413	140
234.647	136
234.881	123
235.115	132
235.349	122
235.583	144
235.817	138
236.051	125
236.285	134
236.519	141
236.753	141
236.987	155
237.221	162
237.455	209
237.689	164
237.922	150
238.156	159
238.39	146
238.624	141
238.858	138
239.091	135
239.325	127
239.559	131
239.793	139
240.027	132
240.26	156
240.494	167
240.728	145
240.961	167
241.195	162
241.429	150
241.662	160
241.896	147
242.13	136
242.363	151
242.597	155
242.83	137
243.064	160
243.298	146
243.531	153
243.765	166
243.998	151
244.232	160
244.465	162
244.699	154
244.932	160
245.166	183
245.399	176
245.633	181
245.866	184
246.099	153
246.333	190
246.566	157
246.8	189
247.033	184
247.266	176
247.5	188
247.733	176
247.966	193
248.2	198
248.433	201
248.666	196
248.899	196
249.133	209
249.366	213
249.599	207
249.832	200
250.066	199
250.299	216
250.532	214
250.765	219
250.998	237
251.231	247
251.465	223
251.698	223
251.931	229
252.164	224
252.397	205
252.63	233
252.863	221
253.096	234
253.329	239
253.562	233
253.795	237
254.028	228
254.261	229
254.494	257
254.727	262
254.96	280
255.193	287
255.426	249
255.659	247
255.892	264
256.124	233
256.357	262
256.59	249
256.823	248
257.056	235
257.289	236
257.521	257
257.754	246
257.987	224
258.22	234
258.452	241
258.685	231
258.918	246
259.151	249
259.383	253
259.616	251
259.849	258
260.081	262
260.314	288
260.547	297
260.779	271
261.012	259
261.244	261
261.477	268
261.71	269
261.942	256
262.175	250
262.407	256
262.64	249
262.872	239
263.105	249
263.337	241
263.57	246
263.802	245
264.035	253
264.267	251
264.499	256
264.732	275
264.964	257
265.197	273
265.429	248
265.661	277
265.894	256
266.126	268
266.358	272
266.591	261
266.823	280
267.055	262
267.287	279
267.52	257
267.752	280
267.984	283
268.216	280
268.448	271
268.681	264
268.913	290
269.145	290
269.377	296
269.609	304
269.841	322
270.073	306
270.306	316
270.538	349
270.77	347
271.002	355
271.234	316
271.466	328
271.698	322
271.93	343
272.162	352
272.394	332
272.626	332
272.858	303
273.09	308
273.322	320
273.553	320
273.785	320
274.017	317
274.249	316
274.481	317
274.713	325
274.945	302
275.176	320
275.408	293
275.64	305
275.872	292
276.104	298
276.335	328
276.567	334
276.799	318
277.031	350
277.262	351
277.494	344
277.726	356
277.957	335
278.189	329
278.421	349
278.652	322
278.884	324
279.115	349
279.347	342
279.579	328
279.81	329
280.042	333
280.273	328
280.505	332
280.736	329
280.968	336
281.199	323
281.431	320
281.662	341
281.894	337
282.125	325
282.356	356
282.588	353
282.819	367
283.051	333
283.282	351
283.513	347
283.745	349
283.976	337
284.207	360
284.439	348
284.67	328
284.901	347
285.132	359
285.364	356
285.595	348
285.826	350
286.057	349
286.288	369
286.52	349
286.751	345
286.982	346
287.213	376
287.444	359
287.675	382
287.906	372
288.138	358
288.369	366
288.6	382
288.831	380
289.062	370
289.293	378
289.524	358
289.755	378
289.986	381
290.217	352
290.448	354
290.679	368
290.91	362
291.141	373
291.371	378
291.602	373
291.833	374
292.064	366
292.295	373
292.526	381
292.757	377
292.987	369
293.218	372
293.449	378
293.68	377
293.91	372
294.141	369
294.372	372
294.603	374
294.833	378
295.064	386
295.295	378
295.525	375
295.756	368
295.987	376
296.217	390
296.448	420
296.679	400
296.909	383
297.14	383
297.37	391
297.601	388
297.831	396
298.062	412
298.292	416
298.523	414
298.753	404
298.984	415
299.214	401
299.445	405
299.675	401
299.905	393
300.136	407
300.366	405
300.597	407
300.827	409
301.057	415
301.288	449
301.518	425
301.748	397
301.979	431
302.209	438
302.439	436
302.669	420
302.9	424
303.13	437
303.36	433
303.59	414
303.82	429
304.051	418
304.281	417
304.511	431
304.741	426
304.971	420
305.201	422
305.431	428
305.661	433
305.891	429
306.121	426
306.352	426
306.582	427
306.812	431
307.042	420
307.272	438
307.502	424
307.731	449
307.961	417
308.191	427
308.421	410
308.651	427
308.881	426
309.111	423
309.341	424
309.571	415
309.8	446
310.03	444
310.26	450
310.49	448
310.72	461
310.949	462
311.179	461
311.409	464
311.639	461
311.868	453
312.098	469
312.328	464
312.557	476
312.787	505
313.017	494
313.246	467
313.476	461
313.706	473
313.935	461
314.165	495
314.394	478
314.624	497
314.853	473
315.083	493
315.312	480
315.542	451
315.771	452
316.001	452
316.23	461
316.46	470
316.689	455
316.919	465
317.148	474
317.377	463
317.607	463
317.836	458
318.065	457
318.295	479
318.524	500
318.753	484
318.983	472
319.212	472
319.441	474
319.67	476
319.9	464
320.129	462
320.358	432
320.587	466
320.816	463
321.046	472
321.275	512
321.504	474
321.733	484
321.962	504
322.191	494
322.42	504
322.649	510
322.878	503
323.108	505
323.337	539
323.566	555
323.795	574
324.024	570
324.253	649
324.482	875
324.71	1244
324.939	1728
325.168	1547
325.397	865
325.626	658
325.855	588
326.084	574
326.313	572
326.542	582
326.77	608
326.999	640
327.228	809
327.457	1158
327.686	1403
327.914	980
328.143	700
328.372	658
328.6	622
328.829	618
329.058	614
329.287	615
329.515	589
329.744	608
329.972	590
330.201	580
330.43	623
330.658	603
330.887	644
331.115	639
331.344	595
331.572	584
331.801	597
332.03	606
332.258	617
332.486	575
332.715	586
332.943	589
333.172	621
333.4	629
333.629	632
333.857	684
334.085	661
334.314	664
334.542	680
334.771	703
334.999	640
335.227	644
335.455	599
335.684	621
335.912	594
336.14	602
336.369	590
336.597	598
336.825	598
337.053	596
337.281	575
337.51	585
337.738	583
337.966	572
338.194	562
338.422	559
338.65	558
338.878	566
339.106	566
339.334	555
339.562	550
339.79	541
340.018	561
340.246	544
340.474	557
340.702	525
340.93	555
341.158	543
341.386	533
341.614	550
341.842	526
342.07	534
342.298	529
342.526	525
342.754	525
342.981	531
343.209	530
343.437	552
343.665	566
343.893	585
344.12	594
344.348	596
344.576	569
344.804	562
345.031	572
345.259	554
345.487	572
345.714	542
345.942	528
346.17	527
346.397	533
346.625	510
346.853	505
347.08	530
347.308	515
347.535	541
347.763	543
347.99	538
348.218	542
348.445	534
348.673	553
348.9	556
349.128	524
349.355	513
349.583	513
349.81	517
350.037	496
350.265	520
350.492	492
350.72	497
350.947	506
351.174	520
351.402	519
351.629	545
351.856	504
352.083	556
352.311	536
352.538	524
352.765	537
352.992	504
353.22	509
353.447	514
353.674	520
353.901	516
354.128	507
354.355	504
354.583	513
354.81	500
355.037	506
355.264	508
355.491	517
355.718	507
355.945	506
356.172	501
356.399	481
356.626	513
356.853	513
357.08	481
357.307	493
357.534	503
357.761	500
357.988	504
358.215	497
358.441	522
358.668	502
358.895	507
359.122	524
359.349	518
359.576	504
359.802	538
360.029	543
360.256	564
360.483	541
360.709	520
360.936	533
361.163	512
361.39	515
361.616	505
361.843	508
362.07	544
362.296	544
362.523	521
362.749	509
362.976	514
363.203	512
363.429	514
363.656	503
363.882	520
364.109	523
364.335	510
364.562	500
364.788	512
365.015	505
365.241	498
365.468	511
365.694	514
365.92	521
366.147	501
366.373	511
366.599	491
366.826	495
367.052	508
367.278	522
367.505	521
367.731	510
367.957	518
368.184	529
368.41	514
368.636	518
368.862	518
369.089	524
369.315	518
369.541	537
369.767	508
369.993	532
370.219	522
370.445	525
370.672	526
370.898	530
371.124	536
371.35	541
371.576	528
371.802	552
372.028	554
372.254	514
372.48	523
372.706	535
372.932	545
373.158	530
373.384	544
373.61	544
373.835	524
374.061	508
374.287	527
374.513	547
374.739	553
374.965	567
375.191	559
375.416	570
375.642	554
375.868	550
376.094	552
376.319	539
376.545	537
376.771	555
376.997	552
377.222	524
377.448	544
377.674	516
377.899	520
378.125	504
378.35	543
378.576	527
378.802	525
379.027	550
379.253	510
379.478	514
379.704	528
379.929	516
380.155	528
380.38	530
380.606	542
380.831	524
381.057	540
381.282	559
381.507	550
381.733	544
381.958	539
382.184	549
382.409	533
382.634	530
382.86	548
383.085	555
383.31	529
383.535	581
383.761	556
383.986	572
384.211	571
384.436	575
384.662	617
384.887	621
385.112	604
385.337	610
385.562	591
385.787	604
386.013	618
386.238	624
386.463	612
386.688	624
386.913	591
387.138	601
387.363	605
387.588	631
387.813	594
388.038	623
388.263	615
388.488	622
388.713	612
388.938	606
389.163	597
389.387	612
389.612	589
389.837	619
390.062	584
390.287	599
390.512	617
390.736	594
390.961	612
391.186	632
391.411	617
391.636	644
391.86	666
392.085	658
392.31	645
392.534	659
392.759	632
392.984	616
393.208	625
393.433	615
393.658	617
393.882	651
394.107	642
394.331	633
394.556	662
394.78	633
395.005	638
395.229	657
395.454	680
395.678	671
395.903	674
396.127	680
396.352	670
396.576	628
396.801	656
397.025	659
397.249	644
397.474	686
397.698	674
397.922	675
398.147	688
398.371	701
398.595	707
398.82	722
399.044	781
399.268	828
399.492	882
399.717	968
399.941	998
400.165	961
400.389	909
400.613	831
400.837	790
401.062	742
401.286	730
401.51	741
401.734	725
401.958	754
402.182	736
402.406	744
402.63	769
402.854	799
403.078	774
403.302	785
403.526	811
403.75	807
403.974	811
404.198	780
404.422	800
404.645	784
404.869	798
405.093	824
405.317	830
405.541	881
405.765	827
405.988	807
406.212	824
406.436	851
406.66	873
406.883	822
407.107	875
407.331	900
407.555	986
407.778	967
408.002	904
408.226	885
408.449	845
408.673	836
408.896	840
409.12	891
409.344	873
409.567	824
409.791	785
410.014	790
410.238	768
410.461	756
410.685	776
410.908	801
411.132	782
411.355	791
411.578	816
411.802	778
412.025	762
412.249	777
412.472	804
412.695	813
412.919	796
413.142	774
413.365	742
413.589	742
413.812	716
414.035	713
414.258	713
414.482	709
414.705	729
414.928	747
415.151	745
415.374	725
415.597	741
415.821	713
416.044	704
416.267	711
416.49	710
416.713	708
416.936	719
417.159	713
417.382	714
417.605	729
417.828	721
418.051	758
418.274	738
418.497	722
418.72	713
418.943	747
419.166	774
419.389	798
419.611	808
419.834	763
420.057	748
420.28	733
420.503	756
420.726	731
420.948	709
421.171	765
421.394	796
421.617	744
421.839	737
422.062	766
422.285	743
422.507	802
422.73	874
422.953	826
423.175	791
423.398	797
423.621	771
423.843	794
424.066	790
424.288	796
424.511	808
424.733	824
424.956	894
425.178	848
425.401	847
425.623	900
425.846	800
426.068	743
426.291	748
426.513	754
426.735	733
426.958	795
427.18	849
427.402	948
427.625	1017
427.847	893
428.069	798
428.292	765
428.514	734
428.736	710
428.958	680
429.181	674
429.403	681
429.625	685
429.847	698
430.069	738
430.292	749
430.514	701
430.736	671
430.958	678
431.18	668
431.402	684
431.624	670
431.846	648
432.068	683
432.29	694
432.512	673
432.734	676
432.956	667
433.178	677
433.4	688
433.622	677
433.844	699
434.066	689
434.287	670
434.509	703
434.731	688
434.953	708
435.175	744
435.397	746
435.618	752
435.84	754
436.062	815
436.284	889
436.505	778
436.727	723
436.949	699
437.17	704
437.392	686
437.614	668
437.835	709
438.057	785
438.278	880
438.5	857
438.721	920
438.943	905
439.165	776
439.386	720
439.608	729
439.829	718
440.05	730
440.272	745
440.493	756
440.715	708
440.936	679
441.158	708
441.379	718
441.6	737
441.822	758
442.043	780
442.264	837
442.486	857
442.707	787
442.928	739
443.149	754
443.371	790
443.592	824
443.813	908
444.034	932
444.255	860
444.476	823
444.698	822
444.919	862
445.14	946
445.361	868
445.582	832
445.803	867
446.024	892
446.245	904
446.466	842
446.687	756
446.908	714
447.129	692
447.35	686
447.571	672
447.792	653
448.013	673
448.234	709
448.455	713
448.675	803
448.896	913
449.117	804
449.338	762
449.559	836
449.779	934
450	749
450.221	690
450.442	656
450.662	647
450.883	641
451.104	682
451.324	636
451.545	633
451.766	628
451.986	634
452.207	607
452.428	603
452.648	626
452.869	616
453.089	632
453.31	629
453.53	599
453.751	622
453.971	618
454.192	618
454.412	594
454.633	604
454.853	599
455.073	625
455.294	616
455.514	666
455.734	641
455.955	574
456.175	590
456.395	588
456.616	580
456.836	591
457.056	576
457.276	572
457.497	586
457.717	622
457.937	576
458.157	616
458.377	608
458.598	608
458.818	642
459.038	727
459.258	770
459.478	718
459.698	696
459.918	695
460.138	702
460.358	732
460.578	744
460.798	727
461.018	735
461.238	746
461.458	721
461.678	709
461.898	746
462.118	738
462.338	776
462.558	814
462.777	797
462.997	841
463.217	898
463.437	908
463.657	864
463.876	848
464.096	809
464.316	802
464.536	826
464.755	831
464.975	794
465.195	792
465.414	829
465.634	752
465.854	716
466.073	679
466.293	673
466.512	636
466.732	634
466.951	658
467.171	647
467.391	648
467.61	653
467.829	660
468.049	654
468.268	657
468.488	661
468.707	605
468.927	610
469.146	618
469.365	604
469.585	633
469.804	652
470.023	658
470.243	650
470.462	678
470.681	699
470.901	667
471.12	637
471.339	672
471.558	640
471.777	654
471.997	678
472.216	634
472.435	666
472.654	672
472.873	620
473.092	617
473.311	627
473.53	606
473.749	609
473.968	667
474.187	750
474.406	781
474.625	672
474.844	644
475.063	624
475.282	634
475.501	636
475.72	632
475.939	638
476.158	668
476.377	654
476.596	644
476.814	690
477.033	664
477.252	681
477.471	684
477.69	709
477.908	710
478.127	722
478.346	727
478.564	741
478.783	754
479.002	792
479.22	758
479.439	792
479.658	763
479.876	786
480.095	834
480.313	807
480.532	841
480.751	847
480.969	831
481.188	859
481.406	893
481.624	836
481.843	786
482.061	761
482.28	758
482.498	752
482.717	737
482.935	741
483.153	752
483.372	721
483.59	745
483.808	737
484.027	761
484.245	754
484.463	763
484.681	752
484.9	750
485.118	784
485.336	752
485.554	781
485.772	786
485.99	781
486.209	786
486.427	794
486.645	776
486.863	805
487.081	784
487.299	798
487.517	786
487.735	792
487.953	789
488.171	780
488.389	797
488.607	793
488.825	821
489.043	789
489.261	815
489.479	786
489.696	806
489.914	780
490.132	837
490.35	820
490.568	832
490.786	841
491.003	845
491.221	839
491.439	846
491.657	847
491.874	858
492.092	882
492.31	911
492.527	878
492.745	909
492.963	875
493.18	894
493.398	915
493.615	897
493.833	913
494.05	914
494.268	918
494.485	914
494.703	937
494.92	917
495.138	913
495.355	914
495.573	914
495.79	910
496.008	906
496.225	951
496.442	933
496.66	920
496.877	959
497.094	961
497.312	960
497.529	981
497.746	991
497.963	1022
498.181	1065
498.398	1061
498.615	1120
498.832	1144
499.049	1184
499.267	1238
499.484	1332
499.701	1414
499.918	1536
500.135	1681
500.352	1798
500.569	1860
500.786	1865
501.003	1801
501.22	1688
501.437	1581
501.654	1450
501.871	1420
502.088	1254
502.305	1212
502.522	1188
502.739	1114
502.956	1094
503.172	1050
503.389	1001
503.606	989
503.823	982
504.04	1003
504.256	983
504.473	1012
504.69	994
504.907	1000
505.123	954
505.34	922
505.557	904
505.773	902
505.99	868
506.207	905
506.423	860
506.64	876
506.856	830
507.073	825
507.289	836
507.506	840
507.722	817
507.939	825
508.155	812
508.372	800
508.588	785
508.805	836
509.021	822
509.238	815
509.454	794
509.67	782
509.887	794
510.103	790
510.319	809
510.536	838
510.752	1254
510.968	1076
511.184	788
511.401	771
511.617	770
511.833	754
512.049	757
512.265	749
512.481	748
512.698	741
512.914	773
513.13	744
513.346	761
513.562	753
513.778	745
513.994	754
514.21	764
514.426	768
514.642	820
514.858	837
515.074	857
515.29	933
515.506	1260
515.721	1116
515.937	850
516.153	794
516.369	811
516.585	820
516.801	864
517.016	878
517.232	878
517.448	910
517.664	927
517.879	913
518.095	927
518.311	924
518.527	888
518.742	882
518.958	856
519.173	832
519.389	797
519.605	779
519.82	794
520.036	791
520.251	797
520.467	813
520.682	789
520.898	785
521.113	809
521.329	818
521.544	841
521.76	1008
521.975	1501
522.19	1558
522.406	914
522.621	776
522.836	754
523.052	725
523.267	721
523.482	672
523.698	692
523.913	662
524.128	674
524.343	673
524.559	693
524.774	661
524.989	680
525.204	661
525.419	672
525.634	650
525.849	652
526.064	663
526.28	624
526.495	651
526.71	644
526.925	664
527.14	630
527.355	624
527.57	622
527.785	666
527.999	636
528.214	644
528.429	626
528.644	636
528.859	656
529.074	644
529.289	689
529.503	711
529.718	686
529.933	671
530.148	642
530.363	649
530.577	643
530.792	626
531.007	630
531.221	630
531.436	644
531.651	637
531.865	638
532.08	666
532.295	641
532.509	643
532.724	636
532.938	643
533.153	636
533.367	650
533.582	637
533.796	619
534.011	626
534.225	628
534.44	618
534.654	609
534.868	619
535.083	632
535.297	626
535.511	618
535.726	621
535.94	634
536.154	622
536.369	618
536.583	639
536.797	620
537.011	610
537.225	575
537.44	603
537.654	605
537.868	592
538.082	596
538.296	604
538.51	589
538.724	614
538.938	615
539.153	591
539.367	607
539.581	584
539.795	592
540.009	568
540.222	598
540.436	592
540.65	593
540.864	624
541.078	606
541.292	583
541.506	569
541.72	577
541.934	581
542.147	605
542.361	577
542.575	570
542.789	570
543.002	564
543.216	569
543.43	588
543.644	578
543.857	573
544.071	582
544.285	612
544.498	601
544.712	592
544.925	597
545.139	582
545.352	583
545.566	579
545.779	596
545.993	588
546.206	572
546.42	594
546.633	577
546.847	580
547.06	582
547.274	584
547.487	591
547.7	580
547.914	575
548.127	577
548.34	608
548.554	608
548.767	578
548.98	573
549.193	585
549.407	595
549.62	613
549.833	590
550.046	578
550.259	610
550.473	576
550.686	592
550.899	571
551.112	584
551.325	564
551.538	561
551.751	576
551.964	587
552.177	584
552.39	608
552.603	604
552.816	606
553.029	612
553.242	634
553.455	631
553.667	640
553.88	637
554.093	627
554.306	590
554.519	608
554.732	589
554.944	578
555.157	574
555.37	584
555.583	561
555.795	572
556.008	548
556.221	542
556.433	542
556.646	527
556.859	524
557.071	512
557.284	536
557.496	526
557.709	536
557.921	538
558.134	527
558.346	536
558.559	529
558.771	525
558.984	506
559.196	515
559.409	495
559.621	504
559.833	506
560.046	485
560.258	507
560.47	517
560.683	497
560.895	496
561.107	510
561.32	494
561.532	506
561.744	522
561.956	494
562.168	496
562.381	518
562.593	506
562.805	506
563.017	531
563.229	519
563.441	504
563.653	503
563.865	523
564.077	529
564.289	543
564.501	531
564.713	532
564.925	570
565.137	553
565.349	560
565.561	593
565.773	600
565.985	632
566.197	646
566.408	674
566.62	706
566.832	744
567.044	779
567.255	756
567.467	756
567.679	832
567.891	830
568.102	854
568.314	807
568.526	796
568.737	719
568.949	667
569.161	644
569.372	616
569.584	593
569.795	583
570.007	573
570.218	573
570.43	580
570.641	541
570.853	517
571.064	529
571.276	523
571.487	532
571.698	509
571.91	504
572.121	495
572.333	490
572.544	465
572.755	474
572.966	445
573.178	461
573.389	449
573.6	436
573.811	448
574.023	452
574.234	434
574.445	451
574.656	448
574.867	447
575.078	447
575.289	458
575.501	440
575.712	425
575.923	447
576.134	419
576.345	415
576.556	422
576.767	404
576.978	439
577.188	427
577.399	420
577.61	416
577.821	400
578.032	401
578.243	444
578.454	597
578.665	495
578.875	396
579.086	421
579.297	412
579.508	407
579.718	403
579.929	397
580.14	399
580.35	385
580.561	410
580.772	381
580.982	392
581.193	383
581.403	407
581.614	385
581.825	386
582.035	385
582.246	401
582.456	376
582.667	390
582.877	367
583.087	390
583.298	392
583.508	376
583.719	366
583.929	395
584.139	398
584.35	384
584.56	378
584.77	361
584.981	388
585.191	382
585.401	384
585.611	360
585.821	373
586.032	388
586.242	384
586.452	381
586.662	373
586.872	367
587.082	368
587.292	372
587.502	381
587.713	399
587.923	380
588.133	384
588.343	362
588.553	372
588.762	397
588.972	385
589.182	384
589.392	401
589.602	380
589.812	388
590.022	359
590.232	364
590.441	388
590.651	402
590.861	391
591.071	401
591.281	398
591.49	399
591.7	393
591.91	410
592.119	407
592.329	404
592.539	434
592.748	452
592.958	440
593.167	439
593.377	421
593.587	459
593.796	465
594.006	457
594.215	462
594.424	440
594.634	448
594.843	455
595.053	433
595.262	398
595.472	411
595.681	394
595.89	402
596.1	394
596.309	396
596.518	362
596.727	372
596.937	376
597.146	349
597.355	365
597.564	356
597.774	353
597.983	334
598.192	353
598.401	357
598.61	360
598.819	359
599.028	336
599.237	355
599.446	353
599.655	349
599.864	328
600.073	335
600.282	332
600.491	353
600.7	333
600.909	327
601.118	327
601.327	317
601.536	332
601.745	338
601.953	326
602.162	335
602.371	328
602.58	322
602.789	303
602.997	318
603.206	310
603.415	302
603.623	320
603.832	324
604.041	307
604.249	339
604.458	319
604.666	300
604.875	323
605.084	302
605.292	337
605.501	330
605.709	302
605.918	306
606.126	297
606.334	292
606.543	333
606.751	308
606.96	292
607.168	316
607.376	314
607.585	291
607.793	306
608.001	299
608.21	289
608.418	305
608.626	297
608.834	294
609.043	300
609.251	297
609.459	299
609.667	302
609.875	316
610.083	302
610.291	288
610.499	292
610.707	298
610.916	295
611.124	310
611.332	304
611.54	308
611.748	314
611.955	304
612.163	309
612.371	293
612.579	295
612.787	312
612.995	298
613.203	294
613.411	275
613.618	286
613.826	302
614.034	308
614.242	295
614.449	314
614.657	292
614.865	285
615.072	289
615.28	305
615.488	273
615.695	293
615.903	290
616.111	292
616.318	297
616.526	314
616.733	322
616.941	319
617.148	303
617.356	308
617.563	281
617.771	303
617.978	278
618.185	297
618.393	299
618.6	286
618.807	281
619.015	300
619.222	300
619.429	288
619.637	291
619.844	292
620.051	297
620.258	282
620.466	289
620.673	274
620.88	268
621.087	284
621.294	281
621.501	275
621.708	256
621.915	270
622.122	296
622.329	276
622.536	271
622.743	263
622.95	284
623.157	255
623.364	262
623.571	282
623.778	268
623.985	269
624.192	268
624.399	273
624.606	254
624.812	273
625.019	271
625.226	267
625.433	266
625.639	246
625.846	259
626.053	240
626.259	264
626.466	252
626.673	252
626.879	244
627.086	259
627.293	257
627.499	269
627.706	242
627.912	269
628.119	248
628.325	248
628.532	237
628.738	248
628.945	235
629.151	246
629.357	247
629.564	240
629.77	248
629.976	241
630.183	245
630.389	232
630.595	241
630.802	233
631.008	233
631.214	230
631.42	238
631.627	251
631.833	232
632.039	234
632.245	220
632.451	214
632.657	220
632.863	238
633.069	242
633.275	244
633.481	222
633.688	233
633.893	240
634.099	228
634.305	238
634.511	233
634.717	230
634.923	217
635.129	223
635.335	215
635.541	231
635.747	216
635.952	245
636.158	214
636.364	234
636.57	229
636.775	216
636.981	210
637.187	236
637.392	216
637.598	225
637.804	229
638.009	212
638.215	210
638.421	201
638.626	207
638.832	206
639.037	213
639.243	203
639.448	218
639.654	201
639.859	204
640.065	214
640.27	229
640.475	206
640.681	222
640.886	197
641.091	209
641.297	216
641.502	209
641.707	208
641.913	211
642.118	216
642.323	198
642.528	209
642.733	196
642.939	198
643.144	192
643.349	220
643.554	205
643.759	208
643.964	207
644.169	201
644.374	197
644.579	201
644.784	202
644.989	193
645.194	205
645.399	201
645.604	189
645.809	198
646.014	201
646.219	199
646.423	217
646.628	205
646.833	202
647.038	220
647.243	192
647.447	202
647.652	203
647.857	212
648.062	200
648.266	202
648.471	210
648.676	220
648.88	214
649.085	197
649.289	195
649.494	207
649.698	231
649.903	209
650.107	190
650.312	180
650.516	188
650.721	190
650.925	173
651.13	180
651.334	174
651.539	180
651.743	190
651.947	182
652.152	173
652.356	164
652.56	158
652.764	161
652.969	167
653.173	163
653.377	158
653.581	163
653.785	159
653.99	170
654.194	173
654.398	180
654.602	181
654.806	162
655.01	155
655.214	171
655.418	153
655.622	150
655.826	164
656.03	150
656.234	157
656.438	162
656.642	154
656.846	166
657.049	164
657.253	157
657.457	144
657.661	144
657.865	133
658.068	124
658.272	120
658.476	119
658.68	125
658.883	113
659.087	113
659.291	107
659.494	101
659.698	100
659.901	111
660.105	116
660.309	102
660.512	92
660.716	96
660.919	89
661.123	92
661.326	94
661.53	82
661.733	105
661.936	100
662.14	98
662.343	105
662.546	100
662.75	78
662.953	96
663.156	65
663.36	86
663.563	98
663.766	94
663.969	94
664.173	93
664.376	85
664.579	83
664.782	98
664.985	71
665.188	93
665.391	92
665.594	83
665.797	89
666	76
666.203	76
666.406	88
666.609	83
666.812	97
667.015	81
667.218	88
667.421	104
667.624	87
667.827	86
668.03	84
668.232	95
668.435	95
668.638	97
668.841	91
669.043	78
669.246	85
669.449	82
669.651	99
669.854	89
670.057	82
670.259	87
670.462	90
670.665	83
670.867	89
671.07	91
671.272	73
671.475	85
671.677	91
671.88	79
672.082	71
672.284	81
672.487	94
672.689	98
672.892	84
