Data from 1964.PennyLincolnUp.Lamp.En5.5.200Scan.071719.P1._HRD10591_14-04-12-909.txt Node
Date: Thu Jul 18 14:04:12 EDT 2019
User: cochatt
Spectrometer: HR+D1059
Trigger mode: 1
Integration Time (sec): 1.000000E-1
Scans to average: 1
Electric dark correction enabled: true
Nonlinearity correction enabled: false
Boxcar width: 0
XAxis mode: Wavelengths
Number of Pixels in Spectrum: 2048
>>>>>Begin Spectral Data<<<<<
223.165	-7
223.4	-7
223.635	-7
223.869	-19
224.104	-23
224.338	-16
224.573	-12
224.808	-15
225.042	-4
225.277	-9
225.511	4
225.746	-9
225.98	-4
226.215	24
226.449	25
226.683	14
226.918	28
227.152	23
227.387	25
227.621	37
227.856	46
228.09	61
228.324	70
228.559	65
228.793	68
229.027	92
229.262	96
229.496	100
229.73	109
229.964	129
230.199	112
230.433	103
230.667	83
230.901	116
231.136	113
231.37	100
231.604	110
231.838	122
232.072	118
232.306	111
232.541	109
232.775	119
233.009	128
233.243	117
233.477	116
233.711	125
233.945	109
234.179	119
234.413	111
234.647	126
234.881	100
235.115	105
235.349	111
235.583	125
235.817	124
236.051	122
236.285	116
236.519	114
236.753	134
236.987	136
237.221	161
237.455	175
237.689	144
237.922	125
238.156	124
238.39	127
238.624	132
238.858	122
239.091	126
239.325	119
239.559	112
239.793	118
240.027	150
240.26	133
240.494	142
240.728	148
240.961	130
241.195	143
241.429	136
241.662	131
241.896	119
242.13	114
242.363	143
242.597	129
242.83	136
243.064	146
243.298	133
243.531	140
243.765	153
243.998	143
244.232	139
244.465	143
244.699	157
244.932	154
245.166	159
245.399	144
245.633	141
245.866	153
246.099	141
246.333	149
246.566	154
246.8	156
247.033	159
247.266	148
247.5	152
247.733	178
247.966	151
248.2	168
248.433	174
248.666	161
248.899	182
249.133	188
249.366	190
249.599	178
249.832	176
250.066	180
250.299	176
250.532	186
250.765	210
250.998	229
251.231	209
251.465	209
251.698	209
251.931	200
252.164	184
252.397	189
252.63	186
252.863	193
253.096	203
253.329	217
253.562	219
253.795	191
254.028	197
254.261	206
254.494	193
254.727	229
254.96	251
255.193	234
255.426	238
255.659	230
255.892	232
256.124	224
256.357	228
256.59	199
256.823	206
257.056	217
257.289	214
257.521	212
257.754	207
257.987	210
258.22	216
258.452	208
258.685	204
258.918	213
259.151	205
259.383	222
259.616	207
259.849	232
260.081	252
260.314	249
260.547	224
260.779	240
261.012	227
261.244	231
261.477	228
261.71	216
261.942	205
262.175	215
262.407	221
262.64	218
262.872	218
263.105	209
263.337	215
263.57	214
263.802	217
264.035	222
264.267	218
264.499	220
264.732	217
264.964	217
265.197	227
265.429	214
265.661	209
265.894	224
266.126	203
266.358	203
266.591	230
266.823	219
267.055	226
267.287	225
267.52	218
267.752	238
267.984	227
268.216	234
268.448	248
268.681	254
268.913	263
269.145	264
269.377	265
269.609	270
269.841	256
270.073	286
270.306	279
270.538	283
270.77	307
271.002	290
271.234	283
271.466	296
271.698	301
271.93	288
272.162	292
272.394	310
272.626	262
272.858	294
273.09	262
273.322	284
273.553	262
273.785	272
274.017	288
274.249	267
274.481	264
274.713	274
274.945	265
275.176	275
275.408	261
275.64	293
275.872	254
276.104	278
276.335	302
276.567	280
276.799	280
277.031	309
277.262	302
277.494	324
277.726	283
277.957	296
278.189	290
278.421	296
278.652	288
278.884	281
279.115	266
279.347	279
279.579	277
279.81	284
280.042	263
280.273	285
280.505	296
280.736	270
280.968	299
281.199	294
281.431	295
281.662	304
281.894	303
282.125	294
282.356	295
282.588	307
282.819	299
283.051	285
283.282	278
283.513	288
283.745	297
283.976	285
284.207	281
284.439	299
284.67	327
284.901	308
285.132	296
285.364	282
285.595	298
285.826	288
286.057	283
286.288	294
286.52	302
286.751	297
286.982	319
287.213	287
287.444	310
287.675	305
287.906	313
288.138	315
288.369	328
288.6	306
288.831	323
289.062	334
289.293	302
289.524	308
289.755	322
289.986	319
290.217	320
290.448	297
290.679	300
290.91	292
291.141	319
291.371	300
291.602	311
291.833	314
292.064	326
292.295	323
292.526	314
292.757	307
292.987	319
293.218	319
293.449	314
293.68	313
293.91	294
294.141	314
294.372	309
294.603	338
294.833	341
295.064	313
295.295	323
295.525	326
295.756	333
295.987	332
296.217	335
296.448	319
296.679	331
296.909	322
297.14	326
297.37	319
297.601	335
297.831	312
298.062	320
298.292	313
298.523	335
298.753	326
298.984	340
299.214	314
299.445	338
299.675	328
299.905	320
300.136	329
300.366	340
300.597	349
300.827	347
301.057	347
301.288	358
301.518	340
301.748	349
301.979	357
302.209	353
302.439	353
302.669	366
302.9	338
303.13	356
303.36	344
303.59	361
303.82	358
304.051	372
304.281	344
304.511	352
304.741	344
304.971	345
305.201	346
305.431	348
305.661	350
305.891	364
306.121	360
306.352	349
306.582	356
306.812	371
307.042	359
307.272	365
307.502	344
307.731	345
307.961	346
308.191	380
308.421	360
308.651	351
308.881	351
309.111	363
309.341	349
309.571	360
309.8	378
310.03	386
310.26	380
310.49	369
310.72	386
310.949	381
311.179	381
311.409	380
311.639	397
311.868	377
312.098	397
312.328	397
312.557	404
312.787	399
313.017	383
313.246	390
313.476	390
313.706	390
313.935	405
314.165	380
314.394	372
314.624	367
314.853	380
315.083	386
315.312	401
315.542	375
315.771	387
316.001	383
316.23	385
316.46	391
316.689	381
316.919	392
317.148	399
317.377	398
317.607	385
317.836	363
318.065	406
318.295	392
318.524	381
318.753	369
318.983	382
319.212	390
319.441	406
319.67	413
319.9	401
320.129	384
320.358	388
320.587	392
320.816	393
321.046	411
321.275	386
321.504	413
321.733	410
321.962	411
322.191	422
322.42	401
322.649	395
322.878	421
323.108	426
323.337	436
323.566	426
323.795	459
324.024	481
324.253	563
324.482	743
324.71	1040
324.939	1399
325.168	1192
325.397	648
325.626	511
325.855	480
326.084	454
326.313	460
326.542	456
326.77	467
326.999	545
327.228	688
327.457	929
327.686	1076
327.914	758
328.143	570
328.372	515
328.6	485
328.829	494
329.058	491
329.287	478
329.515	460
329.744	478
329.972	464
330.201	487
330.43	517
330.658	505
330.887	520
331.115	489
331.344	479
331.572	470
331.801	449
332.03	462
332.258	472
332.486	455
332.715	440
332.943	452
333.172	473
333.4	476
333.629	483
333.857	489
334.085	505
334.314	527
334.542	543
334.771	540
334.999	519
335.227	468
335.455	456
335.684	483
335.912	463
336.14	486
336.369	476
336.597	465
336.825	446
337.053	466
337.281	461
337.51	449
337.738	463
337.966	436
338.194	434
338.422	450
338.65	449
338.878	448
339.106	447
339.334	450
339.562	442
339.79	445
340.018	437
340.246	432
340.474	438
340.702	430
340.93	445
341.158	441
341.386	419
341.614	429
341.842	433
342.07	460
342.298	437
342.526	432
342.754	412
342.981	424
343.209	422
343.437	440
343.665	440
343.893	467
344.12	461
344.348	434
344.576	446
344.804	453
345.031	439
345.259	449
345.487	420
345.714	424
345.942	413
346.17	426
346.397	429
346.625	401
346.853	413
347.08	398
347.308	403
347.535	424
347.763	408
347.99	420
348.218	416
348.445	424
348.673	414
348.9	408
349.128	413
349.355	393
349.583	382
349.81	398
350.037	402
350.265	412
350.492	392
350.72	401
350.947	387
351.174	389
351.402	415
351.629	400
351.856	408
352.083	400
352.311	410
352.538	412
352.765	413
352.992	392
353.22	389
353.447	405
353.674	389
353.901	394
354.128	398
354.355	377
354.583	383
354.81	391
355.037	395
355.264	376
355.491	396
355.718	382
355.945	400
356.172	382
356.399	392
356.626	379
356.853	365
357.08	365
357.307	381
357.534	407
357.761	386
357.988	400
358.215	381
358.441	393
358.668	387
358.895	368
359.122	399
359.349	382
359.576	398
359.802	426
360.029	419
360.256	431
360.483	412
360.709	420
360.936	412
361.163	402
361.39	393
361.616	383
361.843	397
362.07	388
362.296	390
362.523	395
362.749	402
362.976	382
363.203	393
363.429	368
363.656	390
363.882	377
364.109	372
364.335	385
364.562	382
364.788	383
365.015	389
365.241	397
365.468	386
365.694	381
365.92	379
366.147	378
366.373	381
366.599	384
366.826	380
367.052	375
367.278	369
367.505	390
367.731	387
367.957	390
368.184	368
368.41	387
368.636	385
368.862	389
369.089	391
369.315	365
369.541	361
369.767	376
369.993	372
370.219	383
370.445	376
370.672	380
370.898	397
371.124	384
371.35	366
371.576	400
371.802	386
372.028	376
372.254	397
372.48	380
372.706	377
372.932	380
373.158	388
373.384	401
373.61	390
373.835	380
374.061	401
374.287	387
374.513	386
374.739	396
374.965	393
375.191	404
375.416	418
375.642	379
375.868	369
376.094	379
376.319	406
376.545	373
376.771	365
376.997	378
377.222	376
377.448	385
377.674	378
377.899	376
378.125	384
378.35	374
378.576	360
378.802	361
379.027	357
379.253	387
379.478	392
379.704	366
379.929	388
380.155	382
380.38	379
380.606	390
380.831	383
381.057	383
381.282	380
381.507	378
381.733	383
381.958	363
382.184	385
382.409	400
382.634	389
382.86	392
383.085	404
383.31	393
383.535	403
383.761	392
383.986	405
384.211	385
384.436	400
384.662	391
384.887	393
385.112	409
385.337	414
385.562	420
385.787	431
386.013	417
386.238	422
386.463	421
386.688	428
386.913	419
387.138	413
387.363	429
387.588	420
387.813	422
388.038	388
388.263	407
388.488	409
388.713	416
388.938	440
389.163	426
389.387	414
389.612	410
389.837	420
390.062	414
390.287	410
390.512	402
390.736	409
390.961	418
391.186	405
391.411	423
391.636	424
391.86	430
392.085	417
392.31	425
392.534	454
392.759	422
392.984	425
393.208	416
393.433	412
393.658	429
393.882	409
394.107	439
394.331	412
394.556	410
394.78	438
395.005	406
395.229	414
395.454	428
395.678	427
395.903	437
396.127	459
396.352	449
396.576	432
396.801	449
397.025	424
397.249	428
397.474	447
397.698	445
397.922	449
398.147	449
398.371	476
398.595	447
398.82	453
399.044	511
399.268	527
399.492	530
399.717	567
399.941	570
400.165	570
400.389	571
400.613	534
400.837	489
401.062	457
401.286	457
401.51	481
401.734	458
401.958	468
402.182	475
402.406	481
402.63	479
402.854	480
403.078	480
403.302	497
403.526	480
403.75	494
403.974	497
404.198	493
404.422	501
404.645	500
404.869	514
405.093	537
405.317	550
405.541	581
405.765	520
405.988	521
406.212	497
406.436	471
406.66	524
406.883	507
407.107	537
407.331	569
407.555	600
407.778	628
408.002	558
408.226	519
408.449	520
408.673	506
408.896	534
409.12	561
409.344	532
409.567	492
409.791	510
410.014	474
410.238	484
410.461	481
410.685	484
410.908	493
411.132	506
411.355	514
411.578	536
411.802	504
412.025	488
412.249	479
412.472	481
412.695	555
412.919	527
413.142	463
413.365	464
413.589	487
413.812	439
414.035	471
414.258	480
414.482	464
414.705	445
414.928	460
415.151	466
415.374	464
415.597	455
415.821	454
416.044	440
416.267	455
416.49	433
416.713	441
416.936	450
417.159	450
417.382	459
417.605	448
417.828	451
418.051	461
418.274	456
418.497	450
418.72	466
418.943	450
419.166	464
419.389	477
419.611	475
419.834	468
420.057	448
420.28	460
420.503	464
420.726	451
420.948	477
421.171	511
421.394	520
421.617	473
421.839	448
422.062	454
422.285	462
422.507	500
422.73	551
422.953	533
423.175	490
423.398	488
423.621	481
423.843	475
424.066	482
424.288	482
424.511	504
424.733	517
424.956	573
425.178	564
425.401	560
425.623	550
425.846	494
426.068	489
426.291	470
426.513	471
426.735	483
426.958	497
427.18	575
427.402	656
427.625	689
427.847	609
428.069	528
428.292	490
428.514	474
428.736	480
428.958	461
429.181	436
429.403	439
429.625	453
429.847	463
430.069	516
430.292	500
430.514	466
430.736	428
430.958	453
431.18	442
431.402	432
431.624	409
431.846	430
432.068	417
432.29	436
432.512	428
432.734	440
432.956	420
433.178	440
433.4	440
433.622	427
433.844	422
434.066	415
434.287	424
434.509	437
434.731	431
434.953	438
435.175	456
435.397	448
435.618	471
435.84	525
436.062	552
436.284	599
436.505	506
436.727	481
436.949	471
437.17	430
437.392	433
437.614	444
437.835	438
438.057	520
438.278	580
438.5	576
438.721	652
438.943	610
439.165	505
439.386	465
439.608	478
439.829	458
440.05	501
440.272	514
440.493	488
440.715	426
440.936	429
441.158	447
441.379	461
441.6	448
441.822	473
442.043	485
442.264	547
442.486	564
442.707	501
442.928	497
443.149	486
443.371	486
443.592	526
443.813	564
444.034	620
444.255	526
444.476	487
444.698	512
444.919	504
445.14	588
445.361	539
445.582	507
445.803	552
446.024	629
446.245	613
446.466	570
446.687	484
446.908	479
447.129	443
447.35	452
447.571	436
447.792	409
448.013	424
448.234	446
448.455	466
448.675	551
448.896	617
449.117	550
449.338	489
449.559	579
449.779	642
450	498
450.221	457
450.442	400
450.662	392
450.883	413
451.104	412
451.324	396
451.545	389
451.766	391
451.986	392
452.207	392
452.428	385
452.648	385
452.869	396
453.089	396
453.31	389
453.53	382
453.751	386
453.971	382
454.192	392
454.412	390
454.633	380
454.853	374
455.073	359
455.294	390
455.514	442
455.734	432
455.955	376
456.175	361
456.395	361
456.616	372
456.836	362
457.056	376
457.276	372
457.497	383
457.717	382
457.937	393
458.157	373
458.377	388
458.598	386
458.818	448
459.038	467
459.258	488
459.478	426
459.698	409
459.918	421
460.138	431
460.358	428
460.578	420
460.798	426
461.018	448
461.238	440
461.458	453
461.678	423
461.898	446
462.118	438
462.338	459
462.558	473
462.777	471
462.997	489
463.217	504
463.437	494
463.657	479
463.876	488
464.096	466
464.316	482
464.536	482
464.755	465
464.975	469
465.195	481
465.414	499
465.634	440
465.854	442
466.073	424
466.293	411
466.512	394
466.732	393
466.951	412
467.171	388
467.391	396
467.61	406
467.829	398
468.049	412
468.268	406
468.488	418
468.707	372
468.927	374
469.146	383
469.365	375
469.585	399
469.804	401
470.023	425
470.243	427
470.462	433
470.681	412
470.901	394
471.12	406
471.339	410
471.558	395
471.777	410
471.997	389
472.216	399
472.435	422
472.654	413
472.873	412
473.092	394
473.311	383
473.53	400
473.749	405
473.968	436
474.187	497
474.406	496
474.625	445
474.844	417
475.063	416
475.282	387
475.501	395
475.72	403
475.939	412
476.158	428
476.377	400
476.596	396
476.814	432
477.033	418
477.252	428
477.471	421
477.69	428
477.908	454
478.127	442
478.346	452
478.564	452
478.783	441
479.002	456
479.22	460
479.439	461
479.658	477
479.876	472
480.095	507
480.313	497
480.532	505
480.751	485
480.969	475
481.188	501
481.406	545
481.624	508
481.843	485
482.061	473
482.28	466
482.498	470
482.717	470
482.935	469
483.153	473
483.372	463
483.59	475
483.808	447
484.027	478
484.245	458
484.463	470
484.681	485
484.9	475
485.118	483
485.336	456
485.554	480
485.772	489
485.99	472
486.209	492
486.427	500
486.645	487
486.863	496
487.081	478
487.299	488
487.517	474
487.735	476
487.953	494
488.171	492
488.389	485
488.607	463
488.825	490
489.043	477
489.261	489
489.479	490
489.696	489
489.914	477
490.132	501
490.35	497
490.568	506
490.786	502
491.003	505
491.221	523
491.439	540
491.657	548
491.874	552
492.092	553
492.31	525
492.527	556
492.745	569
492.963	538
493.18	548
493.398	548
493.615	549
493.833	560
494.05	564
494.268	580
494.485	559
494.703	562
494.92	574
495.138	569
495.355	561
495.573	570
495.79	566
496.008	575
496.225	556
496.442	574
496.66	587
496.877	573
497.094	564
497.312	577
497.529	601
497.746	584
497.963	602
498.181	624
498.398	638
498.615	651
498.832	666
499.049	666
499.267	717
499.484	761
499.701	748
499.918	790
500.135	864
500.352	878
500.569	912
500.786	890
501.003	866
501.22	864
501.437	803
501.654	792
501.871	758
502.088	710
502.305	710
502.522	666
502.739	656
502.956	602
503.172	610
503.389	604
503.606	616
503.823	588
504.04	592
504.256	597
504.473	589
504.69	604
504.907	578
505.123	552
505.34	543
505.557	569
505.773	569
505.99	545
506.207	535
506.423	526
506.64	532
506.856	518
507.073	521
507.289	516
507.506	512
507.722	521
507.939	514
508.155	518
508.372	511
508.588	512
508.805	519
509.021	489
509.238	516
509.454	514
509.67	509
509.887	487
510.103	487
510.319	495
510.536	536
510.752	738
510.968	618
511.184	491
511.401	477
511.617	490
511.833	480
512.049	478
512.265	464
512.481	466
512.698	470
512.914	483
513.13	472
513.346	455
513.562	453
513.778	460
513.994	491
514.21	498
514.426	503
514.642	526
514.858	497
515.074	514
515.29	571
515.506	726
515.721	616
515.937	521
516.153	494
516.369	501
516.585	498
516.801	478
517.016	510
517.232	503
517.448	532
517.664	511
517.879	497
518.095	522
518.311	504
518.527	485
518.742	501
518.958	484
519.173	479
519.389	480
519.605	477
519.82	465
520.036	485
520.251	481
520.467	500
520.682	481
520.898	489
521.113	492
521.329	500
521.544	543
521.76	613
521.975	840
522.19	811
522.406	544
522.621	485
522.836	463
523.052	441
523.267	422
523.482	446
523.698	423
523.913	420
524.128	425
524.343	418
524.559	422
524.774	402
524.989	408
525.204	402
525.419	411
525.634	412
525.849	400
526.064	426
526.28	409
526.495	411
526.71	406
526.925	410
527.14	407
527.355	403
527.57	403
527.785	402
527.999	382
528.214	380
528.429	402
528.644	408
528.859	388
529.074	396
529.289	399
529.503	426
529.718	428
529.933	415
530.148	393
530.363	414
530.577	406
530.792	393
531.007	421
531.221	393
531.436	403
531.651	401
531.865	394
532.08	376
532.295	409
532.509	390
532.724	383
532.938	390
533.153	379
533.367	397
533.582	394
533.796	391
534.011	390
534.225	406
534.44	379
534.654	372
534.868	385
535.083	389
535.297	398
535.511	392
535.726	371
535.94	388
536.154	386
536.369	368
536.583	363
536.797	380
537.011	377
537.225	374
537.44	375
537.654	383
537.868	385
538.082	384
538.296	384
538.51	386
538.724	391
538.938	364
539.153	358
539.367	369
539.581	373
539.795	378
540.009	377
540.222	373
540.436	369
540.65	383
540.864	381
541.078	388
541.292	376
541.506	377
541.72	369
541.934	374
542.147	372
542.361	372
542.575	361
542.789	348
543.002	368
543.216	368
543.43	365
543.644	384
543.857	356
544.071	377
544.285	365
544.498	370
544.712	362
544.925	374
545.139	359
545.352	365
545.566	373
545.779	356
545.993	384
546.206	367
546.42	357
546.633	351
546.847	360
547.06	342
547.274	366
547.487	367
547.7	360
547.914	367
548.127	357
548.34	372
548.554	369
548.767	364
548.98	372
549.193	359
549.407	362
549.62	361
549.833	367
550.046	353
550.259	359
550.473	361
550.686	348
550.899	363
551.112	361
551.325	339
551.538	352
551.751	349
551.964	362
552.177	367
552.39	358
552.603	361
552.816	341
553.029	361
553.242	350
553.455	365
553.667	367
553.88	373
554.093	352
554.306	377
554.519	365
554.732	342
554.944	380
555.157	357
555.37	340
555.583	352
555.795	345
556.008	339
556.221	346
556.433	325
556.646	340
556.859	330
557.071	320
557.284	322
557.496	335
557.709	332
557.921	308
558.134	304
558.346	316
558.559	311
558.771	325
558.984	308
559.196	308
559.409	324
559.621	322
559.833	328
560.046	305
560.258	320
560.47	332
560.683	331
560.895	333
561.107	322
561.32	314
561.532	301
561.744	307
561.956	312
562.168	326
562.381	313
562.593	349
562.805	331
563.017	335
563.229	333
563.441	322
563.653	341
563.865	320
564.077	328
564.289	324
564.501	323
564.713	346
564.925	361
565.137	345
565.349	356
565.561	350
565.773	350
565.985	362
566.197	368
566.408	375
566.62	408
566.832	416
567.044	430
567.255	425
567.467	413
567.679	407
567.891	433
568.102	446
568.314	426
568.526	401
568.737	381
568.949	374
569.161	354
569.372	348
569.584	356
569.795	340
570.007	335
570.218	336
570.43	336
570.641	329
570.853	334
571.064	312
571.276	319
571.487	313
571.698	296
571.91	320
572.121	332
572.333	286
572.544	287
572.755	287
572.966	283
573.178	299
573.389	291
573.6	293
573.811	282
574.023	304
574.234	287
574.445	293
574.656	277
574.867	263
575.078	289
575.289	288
575.501	281
575.712	280
575.923	291
576.134	274
576.345	262
576.556	280
576.767	281
576.978	284
577.188	273
577.399	267
577.61	269
577.821	261
578.032	273
578.243	285
578.454	342
578.665	296
578.875	273
579.086	279
579.297	280
579.508	253
579.718	250
579.929	251
580.14	249
580.35	273
580.561	260
580.772	263
580.982	247
581.193	254
581.403	260
581.614	264
581.825	258
582.035	247
582.246	245
582.456	249
582.667	251
582.877	249
583.087	237
583.298	260
583.508	262
583.719	255
583.929	258
584.139	248
584.35	224
584.56	264
584.77	231
584.981	252
585.191	263
585.401	247
585.611	244
585.821	262
586.032	239
586.242	245
586.452	237
586.662	254
586.872	240
587.082	251
587.292	257
587.502	250
587.713	238
587.923	249
588.133	246
588.343	260
588.553	244
588.762	249
588.972	244
589.182	262
589.392	288
589.602	258
589.812	257
590.022	248
590.232	228
590.441	257
590.651	258
590.861	249
591.071	248
591.281	250
591.49	265
591.7	240
591.91	263
592.119	236
592.329	254
592.539	266
592.748	253
592.958	251
593.167	277
593.377	273
593.587	282
593.796	262
594.006	261
594.215	277
594.424	273
594.634	274
594.843	272
595.053	262
595.262	249
595.472	266
595.681	249
595.89	252
596.1	246
596.309	236
596.518	223
596.727	241
596.937	223
597.146	241
597.355	248
597.564	241
597.774	222
597.983	232
598.192	225
598.401	224
598.61	236
598.819	212
599.028	221
599.237	223
599.446	210
599.655	224
599.864	233
600.073	213
600.282	222
600.491	221
600.7	203
600.909	218
601.118	202
601.327	207
601.536	227
601.745	215
601.953	216
602.162	213
602.371	205
602.58	194
602.789	228
602.997	204
603.206	222
603.415	205
603.623	198
603.832	210
604.041	213
604.249	220
604.458	210
604.666	226
604.875	208
605.084	201
605.292	197
605.501	215
605.709	208
605.918	209
606.126	217
606.334	215
606.543	211
606.751	190
606.96	208
607.168	187
607.376	188
607.585	203
607.793	208
608.001	190
608.21	208
608.418	204
608.626	222
608.834	190
609.043	209
609.251	219
609.459	195
609.667	208
609.875	202
610.083	201
610.291	199
610.499	204
610.707	201
610.916	194
611.124	204
611.332	217
611.54	216
611.748	196
611.955	208
612.163	196
612.371	202
612.579	193
612.787	193
612.995	192
613.203	191
613.411	181
613.618	215
613.826	197
614.034	200
614.242	206
614.449	204
614.657	196
614.865	196
615.072	193
615.28	201
615.488	184
615.695	198
615.903	192
616.111	200
616.318	201
616.526	196
616.733	189
616.941	191
617.148	187
617.356	195
617.563	186
617.771	185
617.978	172
618.185	201
618.393	193
618.6	201
618.807	189
619.015	190
619.222	193
619.429	188
619.637	199
619.844	192
620.051	183
620.258	194
620.466	186
620.673	197
620.88	186
621.087	171
621.294	182
621.501	193
621.708	184
621.915	176
622.122	184
622.329	188
622.536	189
622.743	192
622.95	189
623.157	180
623.364	188
623.571	193
623.778	173
623.985	186
624.192	171
624.399	174
624.606	169
624.812	190
625.019	180
625.226	172
625.433	183
625.639	173
625.846	189
626.053	181
626.259	197
626.466	172
626.673	176
626.879	182
627.086	182
627.293	170
627.499	158
627.706	177
627.912	177
628.119	168
628.325	174
628.532	177
628.738	164
628.945	171
629.151	190
629.357	162
629.564	186
629.77	184
629.976	172
630.183	169
630.389	178
630.595	154
630.802	164
631.008	158
631.214	163
631.42	160
631.627	170
631.833	154
632.039	166
632.245	170
632.451	169
632.657	167
632.863	169
633.069	158
633.275	170
633.481	156
633.688	165
633.893	163
634.099	158
634.305	169
634.511	174
634.717	153
634.923	162
635.129	167
635.335	161
635.541	159
635.747	166
635.952	152
636.158	146
636.364	169
636.57	162
636.775	162
636.981	174
637.187	150
637.392	165
637.598	146
637.804	168
638.009	146
638.215	159
638.421	156
638.626	156
638.832	147
639.037	144
639.243	173
639.448	153
639.654	167
639.859	156
640.065	172
640.27	169
640.475	156
640.681	157
640.886	144
641.091	153
641.297	150
641.502	156
641.707	145
641.913	145
642.118	142
642.323	148
642.528	159
642.733	147
642.939	135
643.144	141
643.349	152
643.554	145
643.759	143
643.964	154
644.169	136
644.374	146
644.579	142
644.784	141
644.989	150
645.194	150
645.399	146
645.604	156
645.809	121
646.014	138
646.219	142
646.423	152
646.628	147
646.833	139
647.038	160
647.243	160
647.447	146
647.652	152
647.857	146
648.062	159
648.266	150
648.471	141
648.676	153
648.88	167
649.085	157
649.289	147
649.494	148
649.698	172
649.903	160
650.107	165
650.312	161
650.516	131
650.721	129
650.925	152
651.13	142
651.334	150
651.539	128
651.743	142
651.947	138
652.152	138
652.356	139
652.56	144
652.764	114
652.969	140
653.173	124
653.377	131
653.581	133
653.785	140
653.99	129
654.194	124
654.398	124
654.602	121
654.806	132
655.01	128
655.214	126
655.418	124
655.622	118
655.826	120
656.03	139
656.234	130
656.438	129
656.642	143
656.846	124
657.049	122
657.253	119
657.457	117
657.661	106
657.865	124
658.068	104
658.272	100
658.476	104
658.68	108
658.883	98
659.087	104
659.291	103
659.494	94
659.698	102
659.901	90
660.105	84
660.309	101
660.512	80
660.716	97
660.919	82
661.123	90
661.326	95
661.53	92
661.733	84
661.936	99
662.14	92
662.343	87
662.546	74
662.75	92
662.953	89
663.156	82
663.36	91
663.563	87
663.766	74
663.969	83
664.173	86
664.376	89
664.579	88
664.782	94
664.985	77
665.188	86
665.391	82
665.594	80
665.797	95
666	90
666.203	76
666.406	84
666.609	84
666.812	77
667.015	89
667.218	84
667.421	90
667.624	87
667.827	80
668.03	86
668.232	77
668.435	72
668.638	73
668.841	77
669.043	82
669.246	76
669.449	85
669.651	75
669.854	66
670.057	80
670.259	86
670.462	71
670.665	74
670.867	88
671.07	80
671.272	83
671.475	95
671.677	84
671.88	75
672.082	72
672.284	84
672.487	98
672.689	76
672.892	90
