Data from 1964.PennyLincolnUp.Lamp.En5.5.200Scan.071719.P1._HRD10591_14-04-50-908.txt Node
Date: Thu Jul 18 14:04:50 EDT 2019
User: cochatt
Spectrometer: HR+D1059
Trigger mode: 1
Integration Time (sec): 1.000000E-1
Scans to average: 1
Electric dark correction enabled: true
Nonlinearity correction enabled: false
Boxcar width: 0
XAxis mode: Wavelengths
Number of Pixels in Spectrum: 2048
>>>>>Begin Spectral Data<<<<<
223.165	-8
223.4	-8
223.635	-8
223.869	-14
224.104	-21
224.338	-18
224.573	-11
224.808	-11
225.042	-5
225.277	-3
225.511	-16
225.746	8
225.98	4
226.215	9
226.449	36
226.683	9
226.918	19
227.152	22
227.387	23
227.621	31
227.856	52
228.09	49
228.324	36
228.559	61
228.793	55
229.027	81
229.262	100
229.496	101
229.73	114
229.964	115
230.199	103
230.433	108
230.667	101
230.901	101
231.136	108
231.37	105
231.604	108
231.838	109
232.072	107
232.306	112
232.541	123
232.775	123
233.009	117
233.243	113
233.477	116
233.711	114
233.945	119
234.179	117
234.413	119
234.647	109
234.881	104
235.115	109
235.349	107
235.583	126
235.817	113
236.051	121
236.285	121
236.519	110
236.753	123
236.987	131
237.221	166
237.455	185
237.689	150
237.922	139
238.156	121
238.39	115
238.624	130
238.858	120
239.091	111
239.325	125
239.559	116
239.793	123
240.027	113
240.26	135
240.494	137
240.728	130
240.961	146
241.195	148
241.429	127
241.662	123
241.896	140
242.13	131
242.363	137
242.597	120
242.83	125
243.064	137
243.298	138
243.531	127
243.765	135
243.998	135
244.232	144
244.465	137
244.699	143
244.932	141
245.166	154
245.399	157
245.633	140
245.866	131
246.099	141
246.333	144
246.566	149
246.8	153
247.033	147
247.266	164
247.5	167
247.733	163
247.966	176
248.2	173
248.433	156
248.666	183
248.899	177
249.133	179
249.366	191
249.599	173
249.832	160
250.066	181
250.299	196
250.532	179
250.765	199
250.998	213
251.231	222
251.465	203
251.698	215
251.931	204
252.164	183
252.397	186
252.63	203
252.863	207
253.096	205
253.329	220
253.562	218
253.795	216
254.028	213
254.261	220
254.494	222
254.727	242
254.96	257
255.193	224
255.426	241
255.659	219
255.892	230
256.124	225
256.357	223
256.59	229
256.823	214
257.056	210
257.289	213
257.521	207
257.754	212
257.987	202
258.22	207
258.452	210
258.685	217
258.918	220
259.151	189
259.383	220
259.616	228
259.849	217
260.081	221
260.314	248
260.547	257
260.779	233
261.012	231
261.244	225
261.477	226
261.71	217
261.942	206
262.175	218
262.407	219
262.64	241
262.872	220
263.105	217
263.337	205
263.57	222
263.802	208
264.035	211
264.267	231
264.499	224
264.732	226
264.964	204
265.197	233
265.429	224
265.661	234
265.894	219
266.126	240
266.358	225
266.591	226
266.823	238
267.055	231
267.287	232
267.52	228
267.752	228
267.984	235
268.216	263
268.448	259
268.681	251
268.913	253
269.145	268
269.377	274
269.609	276
269.841	279
270.073	274
270.306	287
270.538	301
270.77	312
271.002	279
271.234	294
271.466	295
271.698	323
271.93	296
272.162	302
272.394	321
272.626	309
272.858	270
273.09	274
273.322	274
273.553	275
273.785	270
274.017	284
274.249	270
274.481	268
274.713	281
274.945	283
275.176	277
275.408	280
275.64	268
275.872	267
276.104	275
276.335	257
276.567	268
276.799	276
277.031	297
277.262	301
277.494	288
277.726	311
277.957	295
278.189	290
278.421	276
278.652	292
278.884	291
279.115	284
279.347	298
279.579	285
279.81	294
280.042	269
280.273	298
280.505	271
280.736	299
280.968	285
281.199	274
281.431	281
281.662	288
281.894	289
282.125	297
282.356	307
282.588	303
282.819	307
283.051	294
283.282	291
283.513	298
283.745	305
283.976	305
284.207	313
284.439	319
284.67	308
284.901	309
285.132	307
285.364	307
285.595	284
285.826	297
286.057	292
286.288	297
286.52	287
286.751	307
286.982	301
287.213	306
287.444	313
287.675	322
287.906	332
288.138	337
288.369	323
288.6	315
288.831	324
289.062	326
289.293	313
289.524	329
289.755	302
289.986	301
290.217	297
290.448	328
290.679	326
290.91	335
291.141	321
291.371	327
291.602	325
291.833	323
292.064	306
292.295	325
292.526	301
292.757	309
292.987	315
293.218	324
293.449	306
293.68	319
293.91	324
294.141	321
294.372	319
294.603	306
294.833	308
295.064	329
295.295	317
295.525	333
295.756	318
295.987	319
296.217	347
296.448	337
296.679	315
296.909	317
297.14	310
297.37	341
297.601	333
297.831	316
298.062	338
298.292	333
298.523	331
298.753	344
298.984	325
299.214	315
299.445	333
299.675	338
299.905	345
300.136	339
300.366	330
300.597	342
300.827	337
301.057	340
301.288	365
301.518	358
301.748	355
301.979	357
302.209	366
302.439	347
302.669	364
302.9	346
303.13	346
303.36	345
303.59	364
303.82	381
304.051	357
304.281	335
304.511	338
304.741	356
304.971	344
305.201	349
305.431	355
305.661	351
305.891	361
306.121	347
306.352	355
306.582	373
306.812	371
307.042	367
307.272	355
307.502	351
307.731	344
307.961	355
308.191	346
308.421	353
308.651	363
308.881	370
309.111	363
309.341	361
309.571	376
309.8	385
310.03	363
310.26	386
310.49	391
310.72	374
310.949	389
311.179	397
311.409	388
311.639	362
311.868	385
312.098	385
312.328	418
312.557	401
312.787	415
313.017	410
313.246	401
313.476	403
313.706	391
313.935	406
314.165	408
314.394	401
314.624	394
314.853	403
315.083	386
315.312	383
315.542	385
315.771	392
316.001	397
316.23	389
316.46	386
316.689	402
316.919	395
317.148	390
317.377	407
317.607	416
317.836	390
318.065	402
318.295	396
318.524	401
318.753	413
318.983	381
319.212	396
319.441	383
319.67	381
319.9	392
320.129	403
320.358	396
320.587	416
320.816	389
321.046	389
321.275	379
321.504	431
321.733	409
321.962	395
322.191	420
322.42	434
322.649	436
322.878	426
323.108	440
323.337	444
323.566	483
323.795	484
324.024	503
324.253	589
324.482	810
324.71	1153
324.939	1572
325.168	1313
325.397	714
325.626	524
325.855	486
326.084	451
326.313	472
326.542	465
326.77	474
326.999	573
327.228	730
327.457	1008
327.686	1157
327.914	802
328.143	573
328.372	523
328.6	522
328.829	500
329.058	503
329.287	516
329.515	520
329.744	505
329.972	498
330.201	489
330.43	531
330.658	526
330.887	544
331.115	528
331.344	492
331.572	488
331.801	467
332.03	469
332.258	468
332.486	469
332.715	466
332.943	459
333.172	462
333.4	502
333.629	486
333.857	478
334.085	512
334.314	526
334.542	524
334.771	536
334.999	501
335.227	499
335.455	480
335.684	484
335.912	471
336.14	490
336.369	463
336.597	471
336.825	478
337.053	452
337.281	464
337.51	439
337.738	441
337.966	462
338.194	464
338.422	462
338.65	455
338.878	464
339.106	441
339.334	436
339.562	449
339.79	439
340.018	453
340.246	423
340.474	447
340.702	446
340.93	419
341.158	439
341.386	432
341.614	442
341.842	444
342.07	437
342.298	425
342.526	425
342.754	442
342.981	451
343.209	424
343.437	444
343.665	449
343.893	474
344.12	460
344.348	460
344.576	462
344.804	450
345.031	449
345.259	469
345.487	462
345.714	444
345.942	423
346.17	399
346.397	424
346.625	417
346.853	423
347.08	422
347.308	427
347.535	402
347.763	401
347.99	419
348.218	427
348.445	405
348.673	417
348.9	393
349.128	391
349.355	416
349.583	396
349.81	411
350.037	399
350.265	399
350.492	394
350.72	413
350.947	398
351.174	404
351.402	415
351.629	421
351.856	442
352.083	434
352.311	418
352.538	411
352.765	379
352.992	411
353.22	422
353.447	401
353.674	408
353.901	412
354.128	395
354.355	382
354.583	398
354.81	389
355.037	380
355.264	387
355.491	371
355.718	389
355.945	377
356.172	391
356.399	378
356.626	383
356.853	383
357.08	387
357.307	364
357.534	385
357.761	388
357.988	386
358.215	398
358.441	401
358.668	398
358.895	393
359.122	385
359.349	372
359.576	423
359.802	410
360.029	415
360.256	428
360.483	412
360.709	397
360.936	426
361.163	401
361.39	405
361.616	404
361.843	407
362.07	418
362.296	404
362.523	401
362.749	404
362.976	402
363.203	380
363.429	383
363.656	383
363.882	375
364.109	392
364.335	389
364.562	396
364.788	380
365.015	380
365.241	398
365.468	387
365.694	389
365.92	392
366.147	392
366.373	409
366.599	403
366.826	387
367.052	369
367.278	376
367.505	397
367.731	380
367.957	396
368.184	381
368.41	391
368.636	405
368.862	391
369.089	399
369.315	383
369.541	383
369.767	392
369.993	377
370.219	384
370.445	386
370.672	381
370.898	385
371.124	383
371.35	371
371.576	387
371.802	388
372.028	391
372.254	381
372.48	387
372.706	407
372.932	382
373.158	377
373.384	401
373.61	385
373.835	409
374.061	392
374.287	401
374.513	410
374.739	405
374.965	405
375.191	385
375.416	390
375.642	405
375.868	379
376.094	400
376.319	393
376.545	408
376.771	410
376.997	372
377.222	389
377.448	386
377.674	383
377.899	367
378.125	389
378.35	398
378.576	373
378.802	383
379.027	401
379.253	392
379.478	359
379.704	379
379.929	384
380.155	375
380.38	409
380.606	389
380.831	397
381.057	400
381.282	387
381.507	386
381.733	387
381.958	384
382.184	389
382.409	376
382.634	383
382.86	407
383.085	394
383.31	404
383.535	408
383.761	384
383.986	405
384.211	407
384.436	408
384.662	398
384.887	436
385.112	408
385.337	411
385.562	403
385.787	437
386.013	425
386.238	418
386.463	433
386.688	442
386.913	393
387.138	396
387.363	437
387.588	424
387.813	434
388.038	421
388.263	410
388.488	416
388.713	432
388.938	406
389.163	422
389.387	408
389.612	414
389.837	432
390.062	423
390.287	435
390.512	397
390.736	410
390.961	431
391.186	411
391.411	448
391.636	447
391.86	426
392.085	433
392.31	447
392.534	443
392.759	428
392.984	439
393.208	437
393.433	431
393.658	423
393.882	423
394.107	416
394.331	411
394.556	391
394.78	415
395.005	423
395.229	445
395.454	435
395.678	435
395.903	418
396.127	481
396.352	459
396.576	442
396.801	427
397.025	447
397.249	415
397.474	440
397.698	459
397.922	468
398.147	455
398.371	488
398.595	481
398.82	493
399.044	480
399.268	498
399.492	529
399.717	543
399.941	610
400.165	580
400.389	578
400.613	527
400.837	501
401.062	513
401.286	483
401.51	472
401.734	473
401.958	465
402.182	470
402.406	511
402.63	474
402.854	485
403.078	491
403.302	497
403.526	485
403.75	498
403.974	500
404.198	489
404.422	498
404.645	491
404.869	474
405.093	519
405.317	549
405.541	558
405.765	536
405.988	505
406.212	514
406.436	502
406.66	531
406.883	518
407.107	558
407.331	593
407.555	616
407.778	610
408.002	584
408.226	538
408.449	525
408.673	550
408.896	543
409.12	597
409.344	543
409.567	497
409.791	519
410.014	506
410.238	482
410.461	467
410.685	501
410.908	491
411.132	523
411.355	552
411.578	522
411.802	475
412.025	467
412.249	490
412.472	505
412.695	525
412.919	536
413.142	466
413.365	473
413.589	465
413.812	451
414.035	452
414.258	476
414.482	455
414.705	433
414.928	457
415.151	454
415.374	469
415.597	437
415.821	447
416.044	443
416.267	472
416.49	461
416.713	450
416.936	461
417.159	454
417.382	466
417.605	443
417.828	461
418.051	464
418.274	465
418.497	452
418.72	450
418.943	470
419.166	468
419.389	491
419.611	480
419.834	483
420.057	474
420.28	487
420.503	465
420.726	476
420.948	495
421.171	513
421.394	517
421.617	491
421.839	476
422.062	457
422.285	475
422.507	497
422.73	553
422.953	556
423.175	509
423.398	488
423.621	476
423.843	485
424.066	510
424.288	482
424.511	512
424.733	545
424.956	591
425.178	579
425.401	552
425.623	586
425.846	517
426.068	493
426.291	484
426.513	474
426.735	493
426.958	518
427.18	571
427.402	657
427.625	689
427.847	620
428.069	562
428.292	511
428.514	469
428.736	467
428.958	445
429.181	456
429.403	439
429.625	464
429.847	472
430.069	522
430.292	525
430.514	456
430.736	463
430.958	460
431.18	449
431.402	424
431.624	425
431.846	426
432.068	428
432.29	426
432.512	428
432.734	447
432.956	411
433.178	449
433.4	420
433.622	443
433.844	448
434.066	434
434.287	416
434.509	436
434.731	444
434.953	436
435.175	467
435.397	459
435.618	497
435.84	524
436.062	580
436.284	620
436.505	528
436.727	487
436.949	460
437.17	455
437.392	445
437.614	443
437.835	459
438.057	520
438.278	610
438.5	596
438.721	677
438.943	646
439.165	530
439.386	487
439.608	469
439.829	449
440.05	488
440.272	497
440.493	500
440.715	465
440.936	435
441.158	447
441.379	461
441.6	437
441.822	473
442.043	495
442.264	539
442.486	595
442.707	526
442.928	471
443.149	474
443.371	508
443.592	517
443.813	592
444.034	627
444.255	551
444.476	501
444.698	484
444.919	490
445.14	643
445.361	562
445.582	497
445.803	553
446.024	613
446.245	612
446.466	559
446.687	523
446.908	467
447.129	437
447.35	426
447.571	420
447.792	413
448.013	440
448.234	454
448.455	475
448.675	561
448.896	641
449.117	539
449.338	541
449.559	632
449.779	671
450	563
450.221	472
450.442	431
450.662	404
450.883	420
451.104	420
451.324	412
451.545	431
451.766	405
451.986	380
452.207	396
452.428	385
452.648	389
452.869	390
453.089	386
453.31	419
453.53	407
453.751	393
453.971	396
454.192	417
454.412	378
454.633	384
454.853	381
455.073	394
455.294	410
455.514	440
455.734	437
455.955	381
456.175	370
456.395	359
456.616	379
456.836	375
457.056	367
457.276	367
457.497	383
457.717	375
457.937	376
458.157	368
458.377	376
458.598	409
458.818	410
459.038	477
459.258	492
459.478	437
459.698	428
459.918	445
460.138	439
460.358	431
460.578	420
460.798	433
461.018	459
461.238	425
461.458	452
461.678	429
461.898	445
462.118	424
462.338	456
462.558	460
462.777	492
462.997	490
463.217	487
463.437	472
463.657	476
463.876	466
464.096	480
464.316	478
464.536	474
464.755	492
464.975	465
465.195	470
465.414	524
465.634	453
465.854	427
466.073	419
466.293	396
466.512	386
466.732	415
466.951	430
467.171	412
467.391	409
467.61	405
467.829	410
468.049	385
468.268	385
468.488	393
468.707	394
468.927	381
469.146	390
469.365	408
469.585	384
469.804	415
470.023	379
470.243	394
470.462	406
470.681	425
470.901	401
471.12	393
471.339	408
471.558	421
471.777	412
471.997	398
472.216	424
472.435	435
472.654	403
472.873	415
473.092	409
473.311	401
473.53	424
473.749	428
473.968	432
474.187	527
474.406	500
474.625	431
474.844	413
475.063	425
475.282	395
475.501	439
475.72	421
475.939	401
476.158	417
476.377	408
476.596	401
476.814	399
477.033	423
477.252	413
477.471	434
477.69	459
477.908	458
478.127	490
478.346	460
478.564	457
478.783	457
479.002	472
479.22	460
479.439	483
479.658	480
479.876	478
480.095	490
480.313	511
480.532	510
480.751	500
480.969	509
481.188	543
481.406	555
481.624	497
481.843	481
482.061	483
482.28	456
482.498	484
482.717	474
482.935	483
483.153	468
483.372	462
483.59	469
483.808	474
484.027	463
484.245	480
484.463	465
484.681	454
484.9	469
485.118	486
485.336	479
485.554	487
485.772	499
485.99	499
486.209	493
486.427	480
486.645	488
486.863	491
487.081	509
487.299	503
487.517	502
487.735	487
487.953	493
488.171	486
488.389	504
488.607	488
488.825	498
489.043	487
489.261	507
489.479	518
489.696	513
489.914	504
490.132	499
490.35	516
490.568	505
490.786	514
491.003	530
491.221	534
491.439	516
491.657	550
491.874	569
492.092	573
492.31	550
492.527	563
492.745	567
492.963	576
493.18	577
493.398	565
493.615	563
493.833	575
494.05	564
494.268	580
494.485	569
494.703	580
494.92	573
495.138	572
495.355	582
495.573	569
495.79	589
496.008	579
496.225	575
496.442	570
496.66	613
496.877	566
497.094	584
497.312	577
497.529	599
497.746	624
497.963	607
498.181	659
498.398	633
498.615	664
498.832	671
499.049	720
499.267	718
499.484	766
499.701	762
499.918	829
500.135	843
500.352	866
500.569	885
500.786	911
501.003	901
501.22	860
501.437	843
501.654	805
501.871	773
502.088	741
502.305	714
502.522	654
502.739	671
502.956	645
503.172	618
503.389	611
503.606	588
503.823	608
504.04	609
504.256	620
504.473	575
504.69	608
504.907	583
505.123	573
505.34	553
505.557	561
505.773	588
505.99	567
506.207	546
506.423	543
506.64	523
506.856	528
507.073	551
507.289	543
507.506	532
507.722	537
507.939	559
508.155	528
508.372	528
508.588	521
508.805	515
509.021	514
509.238	509
509.454	547
509.67	541
509.887	513
510.103	517
510.319	512
510.536	562
510.752	757
510.968	624
511.184	470
511.401	515
511.617	481
511.833	489
512.049	491
512.265	517
512.481	472
512.698	465
512.914	507
513.13	490
513.346	487
513.562	485
513.778	459
513.994	469
514.21	488
514.426	496
514.642	512
514.858	514
515.074	534
515.29	588
515.506	751
515.721	629
515.937	533
516.153	522
516.369	520
516.585	510
516.801	510
517.016	477
517.232	519
517.448	522
517.664	538
517.879	532
518.095	536
518.311	512
518.527	508
518.742	521
518.958	499
519.173	491
519.389	471
519.605	486
519.82	487
520.036	483
520.251	489
520.467	500
520.682	507
520.898	508
521.113	487
521.329	515
521.544	543
521.76	634
521.975	908
522.19	822
522.406	567
522.621	483
522.836	457
523.052	464
523.267	440
523.482	434
523.698	442
523.913	460
524.128	451
524.343	429
524.559	451
524.774	418
524.989	421
525.204	424
525.419	425
525.634	397
525.849	411
526.064	414
526.28	394
526.495	419
526.71	421
526.925	403
527.14	396
527.355	413
527.57	404
527.785	396
527.999	424
528.214	405
528.429	416
528.644	417
528.859	411
529.074	386
529.289	416
529.503	451
529.718	456
529.933	416
530.148	419
530.363	390
530.577	393
530.792	378
531.007	393
531.221	419
531.436	413
531.651	397
531.865	389
532.08	417
532.295	388
532.509	395
532.724	388
532.938	388
533.153	386
533.367	401
533.582	385
533.796	392
534.011	387
534.225	381
534.44	371
534.654	399
534.868	370
535.083	394
535.297	371
535.511	396
535.726	389
535.94	405
536.154	395
536.369	379
536.583	379
536.797	388
537.011	366
537.225	378
537.44	372
537.654	372
537.868	376
538.082	358
538.296	359
538.51	365
538.724	351
538.938	373
539.153	378
539.367	380
539.581	368
539.795	351
540.009	383
540.222	372
540.436	349
540.65	370
540.864	374
541.078	379
541.292	379
541.506	374
541.72	372
541.934	374
542.147	373
542.361	375
542.575	371
542.789	366
543.002	353
543.216	391
543.43	375
543.644	363
543.857	380
544.071	383
544.285	388
544.498	360
544.712	379
544.925	366
545.139	363
545.352	381
545.566	377
545.779	373
545.993	395
546.206	377
546.42	376
546.633	376
546.847	366
547.06	372
547.274	365
547.487	359
547.7	361
547.914	358
548.127	357
548.34	368
548.554	371
548.767	356
548.98	357
549.193	368
549.407	369
549.62	361
549.833	380
550.046	377
550.259	361
550.473	366
550.686	356
550.899	361
551.112	336
551.325	341
551.538	349
551.751	351
551.964	335
552.177	376
552.39	377
552.603	348
552.816	363
553.029	382
553.242	373
553.455	381
553.667	388
553.88	363
554.093	349
554.306	371
554.519	362
554.732	374
554.944	356
555.157	364
555.37	361
555.583	337
555.795	353
556.008	348
556.221	332
556.433	323
556.646	330
556.859	344
557.071	343
557.284	336
557.496	305
557.709	323
557.921	344
558.134	329
558.346	325
558.559	328
558.771	326
558.984	324
559.196	320
559.409	313
559.621	322
559.833	327
560.046	317
560.258	318
560.47	334
560.683	329
560.895	322
561.107	325
561.32	308
561.532	332
561.744	335
561.956	329
562.168	297
562.381	340
562.593	298
562.805	333
563.017	332
563.229	333
563.441	341
563.653	315
563.865	342
564.077	324
564.289	314
564.501	340
564.713	343
564.925	347
565.137	343
565.349	368
565.561	344
565.773	356
565.985	385
566.197	388
566.408	392
566.62	405
566.832	416
567.044	442
567.255	407
567.467	436
567.679	411
567.891	428
568.102	452
568.314	425
568.526	378
568.737	385
568.949	373
569.161	366
569.372	346
569.584	338
569.795	356
570.007	338
570.218	361
570.43	336
570.641	307
570.853	315
571.064	323
571.276	314
571.487	319
571.698	314
571.91	299
572.121	305
572.333	292
572.544	289
572.755	296
572.966	282
573.178	279
573.389	288
573.6	288
573.811	276
574.023	297
574.234	294
574.445	267
574.656	269
574.867	274
575.078	272
575.289	278
575.501	299
575.712	284
575.923	283
576.134	277
576.345	278
576.556	288
576.767	281
576.978	261
577.188	271
577.399	264
577.61	267
577.821	266
578.032	274
578.243	281
578.454	363
578.665	309
578.875	263
579.086	257
579.297	256
579.508	263
579.718	271
579.929	252
580.14	264
580.35	281
580.561	271
580.772	248
580.982	267
581.193	245
581.403	251
581.614	265
581.825	247
582.035	270
582.246	263
582.456	260
582.667	259
582.877	250
583.087	246
583.298	241
583.508	251
583.719	254
583.929	255
584.139	242
584.35	257
584.56	260
584.77	251
584.981	273
585.191	283
585.401	248
585.611	266
585.821	260
586.032	247
586.242	255
586.452	245
586.662	227
586.872	230
587.082	255
587.292	245
587.502	248
587.713	233
587.923	237
588.133	255
588.343	244
588.553	244
588.762	256
588.972	239
589.182	265
589.392	270
589.602	243
589.812	265
590.022	269
590.232	220
590.441	260
590.651	262
590.861	250
591.071	234
591.281	251
591.49	247
591.7	250
591.91	263
592.119	272
592.329	249
592.539	248
592.748	256
592.958	251
593.167	291
593.377	248
593.587	279
593.796	278
594.006	269
594.215	268
594.424	277
594.634	285
594.843	274
595.053	271
595.262	260
595.472	251
595.681	242
595.89	252
596.1	255
596.309	239
596.518	246
596.727	260
596.937	223
597.146	231
597.355	233
597.564	244
597.774	249
597.983	225
598.192	222
598.401	216
598.61	220
598.819	236
599.028	206
599.237	220
599.446	230
599.655	236
599.864	219
600.073	218
600.282	216
600.491	219
600.7	214
600.909	219
601.118	214
601.327	212
601.536	217
601.745	219
601.953	216
602.162	240
602.371	212
602.58	219
602.789	218
602.997	215
603.206	216
603.415	215
603.623	204
603.832	213
604.041	207
604.249	209
604.458	208
604.666	212
604.875	208
605.084	203
605.292	201
605.501	197
605.709	199
605.918	207
606.126	216
606.334	206
606.543	216
606.751	208
606.96	195
607.168	210
607.376	204
607.585	207
607.793	220
608.001	201
608.21	191
608.418	190
608.626	205
608.834	181
609.043	200
609.251	197
609.459	206
609.667	204
609.875	198
610.083	204
610.291	199
610.499	201
610.707	205
610.916	208
611.124	196
611.332	188
611.54	202
611.748	206
611.955	201
612.163	204
612.371	213
612.579	197
612.787	197
612.995	192
613.203	216
613.411	199
613.618	194
613.826	200
614.034	188
614.242	195
614.449	205
614.657	210
614.865	190
615.072	202
615.28	199
615.488	192
615.695	203
615.903	209
616.111	199
616.318	205
616.526	207
616.733	177
616.941	190
617.148	195
617.356	189
617.563	196
617.771	202
617.978	180
618.185	188
618.393	201
618.6	198
618.807	198
619.015	201
619.222	200
619.429	200
619.637	208
619.844	194
620.051	200
620.258	178
620.466	184
620.673	166
620.88	183
621.087	181
621.294	188
621.501	190
621.708	182
621.915	183
622.122	180
622.329	203
622.536	182
622.743	179
622.95	194
623.157	197
623.364	203
623.571	175
623.778	183
623.985	192
624.192	166
624.399	165
624.606	188
624.812	187
625.019	177
625.226	191
625.433	201
625.639	182
625.846	177
626.053	176
626.259	170
626.466	187
626.673	178
626.879	172
627.086	161
627.293	172
627.499	170
627.706	176
627.912	167
628.119	176
628.325	181
628.532	148
628.738	163
628.945	166
629.151	176
629.357	169
629.564	168
629.77	166
629.976	168
630.183	171
630.389	171
630.595	155
630.802	171
631.008	171
631.214	168
631.42	170
631.627	179
631.833	161
632.039	168
632.245	179
632.451	181
632.657	172
632.863	163
633.069	151
633.275	145
633.481	152
633.688	167
633.893	152
634.099	147
634.305	154
634.511	159
634.717	162
634.923	161
635.129	151
635.335	139
635.541	164
635.747	179
635.952	151
636.158	149
636.364	167
636.57	168
636.775	134
636.981	145
637.187	175
637.392	153
637.598	156
637.804	154
638.009	165
638.215	158
638.421	157
638.626	169
638.832	142
639.037	148
639.243	159
639.448	153
639.654	150
639.859	155
640.065	145
640.27	144
640.475	149
640.681	156
640.886	138
641.091	157
641.297	152
641.502	145
641.707	163
641.913	149
642.118	146
642.323	158
642.528	159
642.733	154
642.939	140
643.144	143
643.349	138
643.554	144
643.759	130
643.964	147
644.169	152
644.374	142
644.579	147
644.784	149
644.989	144
645.194	148
645.399	139
645.604	142
645.809	145
646.014	144
646.219	152
646.423	149
646.628	143
646.833	148
647.038	141
647.243	149
647.447	163
647.652	162
647.857	142
648.062	146
648.266	144
648.471	142
648.676	148
648.88	147
649.085	138
649.289	145
649.494	165
649.698	162
649.903	168
650.107	155
650.312	142
650.516	161
650.721	155
650.925	125
651.13	144
651.334	154
651.539	127
651.743	135
651.947	138
652.152	141
652.356	142
652.56	140
652.764	127
652.969	121
653.173	123
653.377	127
653.581	119
653.785	115
653.99	129
654.194	134
654.398	119
654.602	118
654.806	142
655.01	124
655.214	123
655.418	123
655.622	128
655.826	127
656.03	117
656.234	111
656.438	119
656.642	129
656.846	139
657.049	128
657.253	147
657.457	137
657.661	131
657.865	117
658.068	110
658.272	107
658.476	107
658.68	100
658.883	107
659.087	97
659.291	108
659.494	89
659.698	105
659.901	91
660.105	96
660.309	91
660.512	84
660.716	101
660.919	94
661.123	100
661.326	73
661.53	78
661.733	79
661.936	88
662.14	100
662.343	94
662.546	89
662.75	83
662.953	87
663.156	83
663.36	81
663.563	93
663.766	89
663.969	77
664.173	86
664.376	79
664.579	77
664.782	89
664.985	86
665.188	86
665.391	85
665.594	70
665.797	87
666	83
666.203	84
666.406	73
666.609	83
666.812	95
667.015	73
667.218	80
667.421	86
667.624	80
667.827	82
668.03	98
668.232	73
668.435	77
668.638	74
668.841	77
669.043	85
669.246	97
669.449	77
669.651	84
669.854	92
670.057	79
670.259	73
670.462	73
670.665	66
670.867	85
671.07	72
671.272	77
671.475	97
671.677	79
671.88	66
672.082	85
672.284	88
672.487	79
672.689	80
672.892	86
