Data from 1964.PennyLincolnUp.Lamp.En5.5.200Scan.071719.P1._HRD10591_14-05-14-909.txt Node
Date: Thu Jul 18 14:05:14 EDT 2019
User: cochatt
Spectrometer: HR+D1059
Trigger mode: 1
Integration Time (sec): 1.000000E-1
Scans to average: 1
Electric dark correction enabled: true
Nonlinearity correction enabled: false
Boxcar width: 0
XAxis mode: Wavelengths
Number of Pixels in Spectrum: 2048
>>>>>Begin Spectral Data<<<<<
223.165	-18
223.4	-18
223.635	-18
223.869	-14
224.104	-17
224.338	-13
224.573	-6
224.808	-23
225.042	10
225.277	-11
225.511	-14
225.746	12
225.98	10
226.215	16
226.449	19
226.683	12
226.918	17
227.152	20
227.387	39
227.621	53
227.856	24
228.09	23
228.324	51
228.559	55
228.793	73
229.027	93
229.262	105
229.496	103
229.73	132
229.964	145
230.199	115
230.433	99
230.667	96
230.901	112
231.136	102
231.37	109
231.604	114
231.838	117
232.072	120
232.306	115
232.541	108
232.775	105
233.009	131
233.243	110
233.477	93
233.711	113
233.945	112
234.179	130
234.413	115
234.647	106
234.881	128
235.115	104
235.349	123
235.583	126
235.817	125
236.051	120
236.285	127
236.519	120
236.753	131
236.987	146
237.221	165
237.455	195
237.689	165
237.922	135
238.156	131
238.39	129
238.624	138
238.858	123
239.091	130
239.325	136
239.559	119
239.793	123
240.027	140
240.26	155
240.494	158
240.728	147
240.961	139
241.195	143
241.429	135
241.662	129
241.896	152
242.13	139
242.363	127
242.597	136
242.83	141
243.064	137
243.298	139
243.531	131
243.765	147
243.998	139
244.232	144
244.465	141
244.699	147
244.932	165
245.166	157
245.399	143
245.633	144
245.866	145
246.099	156
246.333	156
246.566	135
246.8	167
247.033	157
247.266	165
247.5	168
247.733	169
247.966	185
248.2	168
248.433	176
248.666	169
248.899	186
249.133	184
249.366	189
249.599	183
249.832	182
250.066	178
250.299	187
250.532	186
250.765	195
250.998	207
251.231	215
251.465	229
251.698	216
251.931	207
252.164	181
252.397	193
252.63	188
252.863	209
253.096	223
253.329	224
253.562	219
253.795	220
254.028	232
254.261	220
254.494	227
254.727	239
254.96	256
255.193	244
255.426	254
255.659	226
255.892	231
256.124	233
256.357	243
256.59	219
256.823	216
257.056	220
257.289	217
257.521	234
257.754	217
257.987	208
258.22	210
258.452	208
258.685	199
258.918	225
259.151	207
259.383	219
259.616	226
259.849	235
260.081	230
260.314	247
260.547	250
260.779	234
261.012	219
261.244	221
261.477	233
261.71	217
261.942	218
262.175	247
262.407	236
262.64	231
262.872	227
263.105	223
263.337	204
263.57	219
263.802	221
264.035	223
264.267	214
264.499	216
264.732	219
264.964	224
265.197	206
265.429	236
265.661	227
265.894	227
266.126	225
266.358	230
266.591	237
266.823	220
267.055	236
267.287	240
267.52	257
267.752	268
267.984	230
268.216	241
268.448	237
268.681	252
268.913	257
269.145	268
269.377	268
269.609	276
269.841	285
270.073	263
270.306	284
270.538	301
270.77	297
271.002	296
271.234	289
271.466	296
271.698	298
271.93	307
272.162	311
272.394	310
272.626	289
272.858	293
273.09	279
273.322	287
273.553	280
273.785	272
274.017	274
274.249	286
274.481	287
274.713	293
274.945	280
275.176	289
275.408	277
275.64	286
275.872	283
276.104	301
276.335	262
276.567	302
276.799	297
277.031	311
277.262	319
277.494	328
277.726	290
277.957	297
278.189	311
278.421	288
278.652	297
278.884	302
279.115	281
279.347	285
279.579	282
279.81	280
280.042	277
280.273	294
280.505	284
280.736	297
280.968	295
281.199	294
281.431	295
281.662	283
281.894	289
282.125	286
282.356	291
282.588	310
282.819	323
283.051	315
283.282	305
283.513	301
283.745	304
283.976	320
284.207	309
284.439	312
284.67	329
284.901	294
285.132	309
285.364	294
285.595	297
285.826	304
286.057	300
286.288	313
286.52	298
286.751	314
286.982	302
287.213	302
287.444	321
287.675	317
287.906	329
288.138	336
288.369	329
288.6	328
288.831	333
289.062	328
289.293	333
289.524	321
289.755	296
289.986	320
290.217	314
290.448	314
290.679	311
290.91	335
291.141	302
291.371	314
291.602	310
291.833	311
292.064	327
292.295	330
292.526	336
292.757	318
292.987	319
293.218	317
293.449	322
293.68	319
293.91	320
294.141	345
294.372	317
294.603	327
294.833	328
295.064	307
295.295	349
295.525	333
295.756	325
295.987	317
296.217	336
296.448	343
296.679	359
296.909	336
297.14	337
297.37	346
297.601	336
297.831	348
298.062	328
298.292	330
298.523	333
298.753	363
298.984	321
299.214	337
299.445	335
299.675	342
299.905	341
300.136	374
300.366	350
300.597	334
300.827	352
301.057	366
301.288	360
301.518	337
301.748	352
301.979	378
302.209	364
302.439	358
302.669	350
302.9	366
303.13	357
303.36	376
303.59	357
303.82	347
304.051	369
304.281	369
304.511	362
304.741	349
304.971	362
305.201	373
305.431	361
305.661	357
305.891	362
306.121	370
306.352	361
306.582	378
306.812	381
307.042	359
307.272	367
307.502	378
307.731	373
307.961	368
308.191	361
308.421	345
308.651	362
308.881	380
309.111	373
309.341	369
309.571	393
309.8	386
310.03	396
310.26	382
310.49	391
310.72	388
310.949	388
311.179	395
311.409	397
311.639	389
311.868	398
312.098	391
312.328	407
312.557	420
312.787	390
313.017	408
313.246	408
313.476	400
313.706	387
313.935	400
314.165	417
314.394	412
314.624	407
314.853	409
315.083	389
315.312	429
315.542	407
315.771	384
316.001	403
316.23	381
316.46	397
316.689	378
316.919	383
317.148	406
317.377	403
317.607	409
317.836	402
318.065	403
318.295	407
318.524	398
318.753	383
318.983	398
319.212	385
319.441	407
319.67	418
319.9	392
320.129	412
320.358	419
320.587	408
320.816	405
321.046	429
321.275	405
321.504	417
321.733	426
321.962	412
322.191	443
322.42	421
322.649	419
322.878	451
323.108	448
323.337	465
323.566	483
323.795	485
324.024	519
324.253	587
324.482	791
324.71	1146
324.939	1569
325.168	1290
325.397	735
325.626	550
325.855	494
326.084	472
326.313	475
326.542	475
326.77	520
326.999	597
327.228	727
327.457	1021
327.686	1159
327.914	806
328.143	581
328.372	535
328.6	522
328.829	514
329.058	511
329.287	524
329.515	509
329.744	475
329.972	497
330.201	491
330.43	537
330.658	522
330.887	541
331.115	547
331.344	501
331.572	492
331.801	511
332.03	493
332.258	481
332.486	474
332.715	494
332.943	466
333.172	473
333.4	489
333.629	496
333.857	511
334.085	503
334.314	532
334.542	547
334.771	530
334.999	528
335.227	506
335.455	491
335.684	463
335.912	485
336.14	482
336.369	470
336.597	492
336.825	469
337.053	459
337.281	457
337.51	446
337.738	465
337.966	470
338.194	458
338.422	462
338.65	447
338.878	456
339.106	450
339.334	443
339.562	457
339.79	438
340.018	447
340.246	431
340.474	451
340.702	451
340.93	462
341.158	447
341.386	448
341.614	453
341.842	432
342.07	450
342.298	444
342.526	437
342.754	452
342.981	418
343.209	430
343.437	451
343.665	443
343.893	453
344.12	487
344.348	464
344.576	455
344.804	470
345.031	456
345.259	456
345.487	455
345.714	424
345.942	430
346.17	432
346.397	414
346.625	431
346.853	441
347.08	421
347.308	413
347.535	407
347.763	419
347.99	411
348.218	427
348.445	429
348.673	414
348.9	417
349.128	411
349.355	409
349.583	418
349.81	391
350.037	395
350.265	418
350.492	392
350.72	412
350.947	394
351.174	424
351.402	430
351.629	429
351.856	425
352.083	433
352.311	412
352.538	414
352.765	426
352.992	395
353.22	411
353.447	427
353.674	401
353.901	398
354.128	417
354.355	385
354.583	393
354.81	403
355.037	387
355.264	398
355.491	381
355.718	386
355.945	381
356.172	401
356.399	390
356.626	383
356.853	386
357.08	393
357.307	389
357.534	378
357.761	401
357.988	403
358.215	396
358.441	405
358.668	401
358.895	399
359.122	398
359.349	382
359.576	402
359.802	435
360.029	439
360.256	437
360.483	417
360.709	414
360.936	400
361.163	397
361.39	409
361.616	400
361.843	390
362.07	383
362.296	403
362.523	426
362.749	393
362.976	399
363.203	385
363.429	399
363.656	393
363.882	405
364.109	388
364.335	387
364.562	411
364.788	404
365.015	387
365.241	393
365.468	405
365.694	383
365.92	378
366.147	380
366.373	395
366.599	401
366.826	402
367.052	401
367.278	376
367.505	378
367.731	384
367.957	375
368.184	360
368.41	389
368.636	384
368.862	389
369.089	404
369.315	382
369.541	395
369.767	394
369.993	405
370.219	388
370.445	389
370.672	390
370.898	390
371.124	410
371.35	389
371.576	392
371.802	383
372.028	385
372.254	391
372.48	394
372.706	369
372.932	422
373.158	398
373.384	408
373.61	409
373.835	393
374.061	401
374.287	401
374.513	405
374.739	405
374.965	410
375.191	405
375.416	425
375.642	393
375.868	412
376.094	391
376.319	393
376.545	409
376.771	397
376.997	412
377.222	393
377.448	380
377.674	390
377.899	372
378.125	378
378.35	389
378.576	391
378.802	397
379.027	407
379.253	391
379.478	381
379.704	387
379.929	381
380.155	394
380.38	407
380.606	410
380.831	393
381.057	394
381.282	378
381.507	385
381.733	370
381.958	406
382.184	389
382.409	391
382.634	412
382.86	381
383.085	403
383.31	399
383.535	386
383.761	392
383.986	405
384.211	411
384.436	417
384.662	404
384.887	413
385.112	437
385.337	416
385.562	423
385.787	421
386.013	415
386.238	448
386.463	423
386.688	433
386.913	439
387.138	411
387.363	419
387.588	434
387.813	446
388.038	441
388.263	420
388.488	415
388.713	416
388.938	430
389.163	431
389.387	448
389.612	426
389.837	411
390.062	423
390.287	426
390.512	426
390.736	425
390.961	426
391.186	428
391.411	426
391.636	432
391.86	446
392.085	435
392.31	436
392.534	410
392.759	432
392.984	432
393.208	412
393.433	429
393.658	428
393.882	454
394.107	419
394.331	441
394.556	424
394.78	439
395.005	425
395.229	421
395.454	440
395.678	452
395.903	459
396.127	462
396.352	455
396.576	458
396.801	450
397.025	432
397.249	457
397.474	463
397.698	456
397.922	465
398.147	477
398.371	484
398.595	478
398.82	483
399.044	487
399.268	509
399.492	551
399.717	574
399.941	590
400.165	628
400.389	605
400.613	532
400.837	502
401.062	518
401.286	496
401.51	501
401.734	481
401.958	487
402.182	504
402.406	503
402.63	477
402.854	492
403.078	506
403.302	497
403.526	513
403.75	523
403.974	499
404.198	486
404.422	516
404.645	523
404.869	511
405.093	532
405.317	556
405.541	588
405.765	557
405.988	512
406.212	528
406.436	509
406.66	532
406.883	531
407.107	560
407.331	552
407.555	638
407.778	615
408.002	596
408.226	547
408.449	543
408.673	523
408.896	580
409.12	599
409.344	543
409.567	509
409.791	499
410.014	485
410.238	480
410.461	517
410.685	485
410.908	490
411.132	536
411.355	555
411.578	529
411.802	480
412.025	488
412.249	505
412.472	531
412.695	541
412.919	527
413.142	501
413.365	471
413.589	484
413.812	486
414.035	449
414.258	467
414.482	460
414.705	451
414.928	469
415.151	466
415.374	480
415.597	450
415.821	462
416.044	458
416.267	442
416.49	455
416.713	446
416.936	448
417.159	451
417.382	462
417.605	462
417.828	454
418.051	493
418.274	456
418.497	452
418.72	462
418.943	454
419.166	479
419.389	483
419.611	487
419.834	463
420.057	490
420.28	504
420.503	480
420.726	487
420.948	485
421.171	511
421.394	545
421.617	484
421.839	503
422.062	457
422.285	479
422.507	531
422.73	578
422.953	551
423.175	539
423.398	491
423.621	503
423.843	498
424.066	490
424.288	490
424.511	528
424.733	559
424.956	606
425.178	574
425.401	556
425.623	596
425.846	505
426.068	471
426.291	479
426.513	485
426.735	486
426.958	527
427.18	585
427.402	664
427.625	743
427.847	619
428.069	575
428.292	505
428.514	459
428.736	454
428.958	484
429.181	425
429.403	451
429.625	473
429.847	461
430.069	520
430.292	521
430.514	458
430.736	454
430.958	449
431.18	437
431.402	440
431.624	430
431.846	432
432.068	450
432.29	425
432.512	425
432.734	432
432.956	439
433.178	434
433.4	429
433.622	433
433.844	445
434.066	428
434.287	437
434.509	442
434.731	462
434.953	462
435.175	463
435.397	473
435.618	482
435.84	527
436.062	598
436.284	616
436.505	538
436.727	494
436.949	462
437.17	445
437.392	460
437.614	466
437.835	490
438.057	544
438.278	617
438.5	620
438.721	688
438.943	637
439.165	512
439.386	488
439.608	464
439.829	471
440.05	489
440.272	513
440.493	492
440.715	445
440.936	460
441.158	455
441.379	458
441.6	454
441.822	472
442.043	510
442.264	569
442.486	592
442.707	516
442.928	505
443.149	481
443.371	506
443.592	530
443.813	623
444.034	656
444.255	547
444.476	505
444.698	496
444.919	491
445.14	619
445.361	559
445.582	528
445.803	561
446.024	627
446.245	617
446.466	566
446.687	506
446.908	491
447.129	453
447.35	449
447.571	430
447.792	427
448.013	442
448.234	446
448.455	474
448.675	573
448.896	665
449.117	572
449.338	549
449.559	633
449.779	675
450	565
450.221	459
450.442	446
450.662	440
450.883	444
451.104	429
451.324	404
451.545	409
451.766	398
451.986	394
452.207	390
452.428	415
452.648	396
452.869	382
453.089	403
453.31	418
453.53	403
453.751	381
453.971	387
454.192	410
454.412	403
454.633	408
454.853	403
455.073	405
455.294	422
455.514	430
455.734	461
455.955	385
456.175	385
456.395	376
456.616	344
456.836	379
457.056	382
457.276	357
457.497	372
457.717	367
457.937	385
458.157	407
458.377	402
458.598	410
458.818	445
459.038	473
459.258	496
459.478	445
459.698	438
459.918	434
460.138	436
460.358	437
460.578	446
460.798	445
461.018	449
461.238	460
461.458	455
461.678	459
461.898	463
462.118	466
462.338	461
462.558	471
462.777	478
462.997	491
463.217	500
463.437	516
463.657	494
463.876	487
464.096	482
464.316	470
464.536	476
464.755	491
464.975	477
465.195	480
465.414	499
465.634	475
465.854	441
466.073	422
466.293	424
466.512	399
466.732	410
466.951	412
467.171	421
467.391	432
467.61	426
467.829	417
468.049	422
468.268	417
468.488	410
468.707	411
468.927	398
469.146	383
469.365	405
469.585	394
469.804	409
470.023	397
470.243	421
470.462	413
470.681	434
470.901	419
471.12	413
471.339	407
471.558	411
471.777	396
471.997	413
472.216	416
472.435	428
472.654	418
472.873	400
473.092	416
473.311	428
473.53	414
473.749	426
473.968	448
474.187	533
474.406	525
474.625	475
474.844	400
475.063	417
475.282	423
475.501	425
475.72	416
475.939	409
476.158	423
476.377	416
476.596	417
476.814	434
477.033	445
477.252	424
477.471	449
477.69	453
477.908	451
478.127	463
478.346	439
478.564	452
478.783	455
479.002	467
479.22	472
479.439	495
479.658	470
479.876	473
480.095	503
480.313	507
480.532	476
480.751	507
480.969	522
481.188	529
481.406	556
481.624	518
481.843	520
482.061	494
482.28	481
482.498	458
482.717	469
482.935	476
483.153	466
483.372	468
483.59	472
483.808	481
484.027	481
484.245	474
484.463	457
484.681	505
484.9	508
485.118	509
485.336	485
485.554	488
485.772	502
485.99	478
486.209	481
486.427	472
486.645	521
486.863	520
487.081	496
487.299	492
487.517	488
487.735	501
487.953	483
488.171	487
488.389	501
488.607	493
488.825	516
489.043	505
489.261	495
489.479	505
489.696	509
489.914	537
490.132	503
490.35	525
490.568	506
490.786	541
491.003	545
491.221	547
491.439	537
491.657	538
491.874	555
492.092	534
492.31	535
492.527	571
492.745	546
492.963	550
493.18	561
493.398	575
493.615	588
493.833	583
494.05	566
494.268	599
494.485	573
494.703	576
494.92	583
495.138	577
495.355	583
495.573	579
495.79	592
496.008	576
496.225	593
496.442	572
496.66	596
496.877	570
497.094	588
497.312	581
497.529	616
497.746	614
497.963	624
498.181	636
498.398	651
498.615	671
498.832	683
499.049	717
499.267	727
499.484	725
499.701	781
499.918	829
500.135	857
500.352	894
500.569	929
500.786	907
501.003	911
501.22	866
501.437	841
501.654	792
501.871	744
502.088	731
502.305	693
502.522	679
502.739	690
502.956	651
503.172	609
503.389	616
503.606	594
503.823	601
504.04	589
504.256	569
504.473	609
504.69	607
504.907	597
505.123	596
505.34	606
505.557	569
505.773	566
505.99	570
506.207	560
506.423	549
506.64	559
506.856	548
507.073	541
507.289	543
507.506	535
507.722	543
507.939	537
508.155	552
508.372	523
508.588	530
508.805	523
509.021	519
509.238	538
509.454	520
509.67	523
509.887	502
510.103	491
510.319	525
510.536	538
510.752	745
510.968	625
511.184	502
511.401	485
511.617	463
511.833	506
512.049	491
512.265	484
512.481	481
512.698	489
512.914	457
513.13	467
513.346	475
513.562	480
513.778	483
513.994	493
514.21	504
514.426	513
514.642	534
514.858	525
515.074	546
515.29	615
515.506	750
515.721	643
515.937	544
516.153	531
516.369	490
516.585	528
516.801	517
517.016	517
517.232	496
517.448	542
517.664	525
517.879	526
518.095	524
518.311	545
518.527	522
518.742	509
518.958	498
519.173	510
519.389	499
519.605	475
519.82	495
520.036	513
520.251	517
520.467	501
520.682	506
520.898	497
521.113	509
521.329	529
521.544	569
521.76	634
521.975	880
522.19	839
522.406	586
522.621	485
522.836	466
523.052	465
523.267	441
523.482	463
523.698	435
523.913	446
524.128	433
524.343	437
524.559	435
524.774	411
524.989	433
525.204	427
525.419	410
525.634	437
525.849	426
526.064	430
526.28	430
526.495	383
526.71	410
526.925	408
527.14	406
527.355	411
527.57	404
527.785	403
527.999	393
528.214	410
528.429	407
528.644	409
528.859	404
529.074	412
529.289	424
529.503	454
529.718	440
529.933	445
530.148	413
530.363	425
530.577	398
530.792	407
531.007	395
531.221	397
531.436	409
531.651	395
531.865	400
532.08	409
532.295	422
532.509	401
532.724	399
532.938	378
533.153	389
533.367	404
533.582	398
533.796	399
534.011	396
534.225	394
534.44	392
534.654	379
534.868	389
535.083	392
535.297	385
535.511	411
535.726	409
535.94	400
536.154	400
536.369	381
536.583	390
536.797	393
537.011	374
537.225	383
537.44	377
537.654	370
537.868	403
538.082	379
538.296	387
538.51	393
538.724	389
538.938	384
539.153	384
539.367	379
539.581	407
539.795	396
540.009	382
540.222	378
540.436	394
540.65	351
540.864	376
541.078	377
541.292	361
541.506	385
541.72	389
541.934	370
542.147	381
542.361	393
542.575	380
542.789	377
543.002	360
543.216	392
543.43	381
543.644	370
543.857	375
544.071	385
544.285	393
544.498	381
544.712	372
544.925	367
545.139	375
545.352	385
545.566	382
545.779	378
545.993	377
546.206	391
546.42	381
546.633	357
546.847	351
547.06	379
547.274	369
547.487	364
547.7	371
547.914	353
548.127	370
548.34	369
548.554	366
548.767	363
548.98	347
549.193	350
549.407	374
549.62	386
549.833	362
550.046	362
550.259	375
550.473	368
550.686	363
550.899	381
551.112	350
551.325	342
551.538	361
551.751	360
551.964	350
552.177	365
552.39	375
552.603	381
552.816	364
553.029	369
553.242	369
553.455	388
553.667	385
553.88	389
554.093	390
554.306	367
554.519	389
554.732	363
554.944	357
555.157	357
555.37	359
555.583	358
555.795	346
556.008	336
556.221	320
556.433	333
556.646	338
556.859	338
557.071	334
557.284	331
557.496	349
557.709	328
557.921	355
558.134	334
558.346	332
558.559	330
558.771	322
558.984	329
559.196	327
559.409	332
559.621	343
559.833	329
560.046	331
560.258	327
560.47	334
560.683	323
560.895	316
561.107	318
561.32	317
561.532	337
561.744	314
561.956	327
562.168	324
562.381	335
562.593	327
562.805	326
563.017	340
563.229	331
563.441	327
563.653	339
563.865	344
564.077	344
564.289	338
564.501	331
564.713	352
564.925	350
565.137	371
565.349	366
565.561	331
565.773	345
565.985	368
566.197	390
566.408	387
566.62	394
566.832	401
567.044	413
567.255	415
567.467	420
567.679	431
567.891	446
568.102	463
568.314	439
568.526	397
568.737	415
568.949	379
569.161	381
569.372	344
569.584	358
569.795	335
570.007	338
570.218	346
570.43	348
570.641	316
570.853	318
571.064	326
571.276	325
571.487	328
571.698	332
571.91	319
572.121	315
572.333	306
572.544	306
572.755	289
572.966	286
573.178	284
573.389	299
573.6	294
573.811	274
574.023	289
574.234	296
574.445	282
574.656	301
574.867	284
575.078	308
575.289	289
575.501	304
575.712	273
575.923	308
576.134	274
576.345	275
576.556	273
576.767	246
576.978	284
577.188	282
577.399	278
577.61	284
577.821	277
578.032	283
578.243	296
578.454	352
578.665	310
578.875	280
579.086	274
579.297	257
579.508	271
579.718	261
579.929	258
580.14	268
580.35	243
580.561	269
580.772	262
580.982	283
581.193	258
581.403	278
581.614	269
581.825	249
582.035	268
582.246	262
582.456	262
582.667	245
582.877	250
583.087	249
583.298	262
583.508	257
583.719	255
583.929	261
584.139	255
584.35	271
584.56	256
584.77	251
584.981	243
585.191	270
585.401	255
585.611	252
585.821	250
586.032	254
586.242	258
586.452	253
586.662	238
586.872	245
587.082	242
587.292	254
587.502	235
587.713	253
587.923	272
588.133	257
588.343	233
588.553	242
588.762	227
588.972	250
589.182	251
589.392	260
589.602	263
589.812	273
590.022	259
590.232	246
590.441	265
590.651	262
590.861	247
591.071	263
591.281	258
591.49	244
591.7	254
591.91	257
592.119	250
592.329	256
592.539	267
592.748	275
592.958	264
593.167	266
593.377	266
593.587	284
593.796	282
594.006	289
594.215	294
594.424	281
594.634	276
594.843	254
595.053	269
595.262	253
595.472	251
595.681	262
595.89	248
596.1	254
596.309	245
596.518	255
596.727	240
596.937	242
597.146	230
597.355	231
597.564	250
597.774	238
597.983	226
598.192	239
598.401	234
598.61	238
598.819	241
599.028	222
599.237	246
599.446	232
599.655	219
599.864	231
600.073	225
600.282	229
600.491	211
600.7	219
600.909	226
601.118	230
601.327	227
601.536	240
601.745	230
601.953	218
602.162	233
602.371	220
602.58	209
602.789	218
602.997	215
603.206	225
603.415	218
603.623	224
603.832	221
604.041	211
604.249	198
604.458	218
604.666	209
604.875	225
605.084	218
605.292	217
605.501	188
605.709	209
605.918	212
606.126	206
606.334	208
606.543	222
606.751	206
606.96	205
607.168	206
607.376	199
607.585	218
607.793	203
608.001	197
608.21	212
608.418	213
608.626	218
608.834	205
609.043	210
609.251	217
609.459	204
609.667	208
609.875	207
610.083	226
610.291	213
610.499	202
610.707	202
610.916	214
611.124	232
611.332	215
611.54	206
611.748	210
611.955	210
612.163	220
612.371	209
612.579	211
612.787	222
612.995	206
613.203	219
613.411	204
613.618	206
613.826	219
614.034	208
614.242	212
614.449	222
614.657	203
614.865	205
615.072	213
615.28	197
615.488	214
615.695	199
615.903	187
616.111	206
616.318	203
616.526	207
616.733	204
616.941	189
617.148	216
617.356	212
617.563	207
617.771	215
617.978	202
618.185	214
618.393	205
618.6	200
618.807	208
619.015	202
619.222	205
619.429	202
619.637	189
619.844	174
620.051	187
620.258	192
620.466	198
620.673	202
620.88	191
621.087	202
621.294	186
621.501	186
621.708	210
621.915	190
622.122	203
622.329	198
622.536	194
622.743	191
622.95	202
623.157	197
623.364	186
623.571	194
623.778	197
623.985	190
624.192	196
624.399	180
624.606	172
624.812	181
625.019	191
625.226	189
625.433	186
625.639	182
625.846	159
626.053	178
626.259	175
626.466	182
626.673	188
626.879	186
627.086	172
627.293	189
627.499	194
627.706	173
627.912	193
628.119	174
628.325	166
628.532	169
628.738	175
628.945	183
629.151	185
629.357	176
629.564	167
629.77	169
629.976	168
630.183	160
630.389	174
630.595	195
630.802	173
631.008	173
631.214	175
631.42	165
631.627	166
631.833	165
632.039	181
632.245	170
632.451	168
632.657	179
632.863	162
633.069	158
633.275	179
633.481	171
633.688	175
633.893	172
634.099	152
634.305	165
634.511	162
634.717	169
634.923	164
635.129	156
635.335	160
635.541	147
635.747	169
635.952	157
636.158	158
636.364	156
636.57	161
636.775	159
636.981	161
637.187	174
637.392	161
637.598	161
637.804	166
638.009	170
638.215	165
638.421	166
638.626	174
638.832	166
639.037	164
639.243	165
639.448	156
639.654	162
639.859	146
640.065	152
640.27	175
640.475	161
640.681	139
640.886	171
641.091	152
641.297	166
641.502	150
641.707	161
641.913	157
642.118	161
642.323	146
642.528	163
642.733	164
642.939	150
643.144	171
643.349	153
643.554	157
643.759	147
643.964	143
644.169	154
644.374	169
644.579	145
644.784	158
644.989	162
645.194	148
645.399	155
645.604	152
645.809	143
646.014	143
646.219	157
646.423	163
646.628	167
646.833	172
647.038	152
647.243	146
647.447	159
647.652	150
647.857	143
648.062	155
648.266	146
648.471	151
648.676	161
648.88	159
649.085	152
649.289	153
649.494	150
649.698	178
649.903	160
650.107	146
650.312	149
650.516	135
650.721	143
650.925	152
651.13	135
651.334	141
651.539	142
651.743	155
651.947	147
652.152	145
652.356	135
652.56	131
652.764	146
652.969	129
653.173	146
653.377	141
653.581	131
653.785	128
653.99	127
654.194	138
654.398	123
654.602	113
654.806	129
655.01	123
655.214	134
655.418	125
655.622	129
655.826	132
656.03	135
656.234	126
656.438	133
656.642	133
656.846	135
657.049	138
657.253	136
657.457	122
657.661	117
657.865	111
658.068	121
658.272	112
658.476	105
658.68	109
658.883	108
659.087	117
659.291	101
659.494	105
659.698	110
659.901	99
660.105	98
660.309	102
660.512	104
660.716	110
660.919	111
661.123	108
661.326	99
661.53	100
661.733	97
661.936	90
662.14	99
662.343	94
662.546	92
662.75	87
662.953	73
663.156	97
663.36	96
663.563	91
663.766	89
663.969	94
664.173	91
664.376	98
664.579	89
664.782	71
664.985	86
665.188	95
665.391	93
665.594	89
665.797	100
666	78
666.203	89
666.406	93
666.609	83
666.812	96
667.015	89
667.218	89
667.421	90
667.624	89
667.827	83
668.03	81
668.232	86
668.435	86
668.638	67
668.841	86
669.043	84
669.246	82
669.449	84
669.651	79
669.854	77
670.057	90
670.259	77
670.462	83
670.665	91
670.867	79
671.07	83
671.272	79
671.475	94
671.677	90
671.88	81
672.082	91
672.284	98
672.487	80
672.689	85
672.892	85
