Data from 1965.PennyLincolnUp.Lamp.En5.5.200Scan.071719.P1._HRD10591_14-10-14-912.txt Node
Date: Thu Jul 18 14:10:14 EDT 2019
User: cochatt
Spectrometer: HR+D1059
Trigger mode: 1
Integration Time (sec): 1.000000E-1
Scans to average: 1
Electric dark correction enabled: true
Nonlinearity correction enabled: false
Boxcar width: 0
XAxis mode: Wavelengths
Number of Pixels in Spectrum: 2048
>>>>>Begin Spectral Data<<<<<
223.165	-15
223.4	-15
223.635	-15
223.869	-22
224.104	-27
224.338	-8
224.573	-9
224.808	-17
225.042	-5
225.277	-6
225.511	4
225.746	7
225.98	2
226.215	4
226.449	20
226.683	20
226.918	8
227.152	44
227.387	33
227.621	44
227.856	55
228.09	46
228.324	47
228.559	58
228.793	88
229.027	100
229.262	111
229.496	119
229.73	131
229.964	147
230.199	132
230.433	120
230.667	114
230.901	103
231.136	131
231.37	114
231.604	119
231.838	99
232.072	124
232.306	106
232.541	107
232.775	105
233.009	126
233.243	113
233.477	130
233.711	109
233.945	108
234.179	107
234.413	99
234.647	109
234.881	103
235.115	119
235.349	119
235.583	121
235.817	114
236.051	129
236.285	129
236.519	134
236.753	133
236.987	135
237.221	185
237.455	228
237.689	187
237.922	142
238.156	143
238.39	115
238.624	147
238.858	133
239.091	128
239.325	104
239.559	120
239.793	131
240.027	131
240.26	157
240.494	141
240.728	144
240.961	157
241.195	144
241.429	134
241.662	129
241.896	132
242.13	144
242.363	128
242.597	124
242.83	133
243.064	147
243.298	136
243.531	129
243.765	141
243.998	130
244.232	148
244.465	130
244.699	141
244.932	155
245.166	132
245.399	132
245.633	136
245.866	147
246.099	147
246.333	140
246.566	134
246.8	154
247.033	145
247.266	160
247.5	159
247.733	155
247.966	158
248.2	163
248.433	157
248.666	152
248.899	180
249.133	195
249.366	213
249.599	190
249.832	173
250.066	158
250.299	169
250.532	156
250.765	195
250.998	201
251.231	223
251.465	204
251.698	192
251.931	187
252.164	197
252.397	191
252.63	180
252.863	193
253.096	204
253.329	208
253.562	216
253.795	196
254.028	198
254.261	214
254.494	213
254.727	233
254.96	247
255.193	229
255.426	226
255.659	222
255.892	232
256.124	224
256.357	233
256.59	219
256.823	199
257.056	193
257.289	194
257.521	187
257.754	192
257.987	192
258.22	189
258.452	201
258.685	216
258.918	203
259.151	203
259.383	218
259.616	205
259.849	190
260.081	225
260.314	220
260.547	234
260.779	227
261.012	223
261.244	206
261.477	212
261.71	208
261.942	216
262.175	228
262.407	227
262.64	204
262.872	192
263.105	196
263.337	208
263.57	214
263.802	218
264.035	198
264.267	198
264.499	203
264.732	221
264.964	205
265.197	195
265.429	217
265.661	208
265.894	203
266.126	208
266.358	184
266.591	195
266.823	212
267.055	201
267.287	208
267.52	199
267.752	217
267.984	189
268.216	226
268.448	212
268.681	231
268.913	213
269.145	224
269.377	257
269.609	251
269.841	250
270.073	249
270.306	277
270.538	284
270.77	285
271.002	280
271.234	279
271.466	290
271.698	284
271.93	299
272.162	303
272.394	300
272.626	276
272.858	259
273.09	239
273.322	243
273.553	226
273.785	245
274.017	254
274.249	256
274.481	222
274.713	249
274.945	251
275.176	253
275.408	248
275.64	232
275.872	246
276.104	259
276.335	250
276.567	269
276.799	256
277.031	291
277.262	293
277.494	289
277.726	285
277.957	250
278.189	262
278.421	261
278.652	254
278.884	251
279.115	244
279.347	247
279.579	246
279.81	228
280.042	227
280.273	245
280.505	226
280.736	248
280.968	242
281.199	233
281.431	251
281.662	256
281.894	256
282.125	264
282.356	272
282.588	275
282.819	285
283.051	251
283.282	234
283.513	240
283.745	259
283.976	263
284.207	249
284.439	242
284.67	255
284.901	245
285.132	255
285.364	253
285.595	239
285.826	247
286.057	268
286.288	245
286.52	252
286.751	265
286.982	251
287.213	249
287.444	268
287.675	261
287.906	263
288.138	288
288.369	281
288.6	285
288.831	269
289.062	255
289.293	253
289.524	265
289.755	267
289.986	282
290.217	252
290.448	268
290.679	254
290.91	243
291.141	271
291.371	268
291.602	272
291.833	259
292.064	267
292.295	273
292.526	266
292.757	263
292.987	245
293.218	271
293.449	269
293.68	265
293.91	251
294.141	249
294.372	255
294.603	264
294.833	274
295.064	265
295.295	255
295.525	282
295.756	269
295.987	272
296.217	307
296.448	298
296.679	289
296.909	274
297.14	269
297.37	280
297.601	285
297.831	276
298.062	275
298.292	271
298.523	274
298.753	291
298.984	269
299.214	269
299.445	274
299.675	291
299.905	293
300.136	295
300.366	258
300.597	290
300.827	298
301.057	302
301.288	285
301.518	289
301.748	271
301.979	294
302.209	281
302.439	301
302.669	298
302.9	294
303.13	283
303.36	295
303.59	302
303.82	309
304.051	298
304.281	314
304.511	316
304.741	312
304.971	287
305.201	286
305.431	290
305.661	292
305.891	313
306.121	324
306.352	318
306.582	306
306.812	308
307.042	309
307.272	290
307.502	290
307.731	307
307.961	310
308.191	292
308.421	309
308.651	299
308.881	304
309.111	305
309.341	321
309.571	317
309.8	322
310.03	355
310.26	339
310.49	343
310.72	352
310.949	373
311.179	379
311.409	350
311.639	340
311.868	343
312.098	365
312.328	364
312.557	377
312.787	385
313.017	375
313.246	369
313.476	345
313.706	338
313.935	353
314.165	370
314.394	375
314.624	379
314.853	368
315.083	355
315.312	354
315.542	342
315.771	334
316.001	349
316.23	350
316.46	349
316.689	335
316.919	356
317.148	346
317.377	353
317.607	379
317.836	357
318.065	345
318.295	343
318.524	359
318.753	325
318.983	348
319.212	350
319.441	349
319.67	364
319.9	344
320.129	341
320.358	331
320.587	354
320.816	352
321.046	375
321.275	367
321.504	387
321.733	381
321.962	368
322.191	397
322.42	399
322.649	403
322.878	439
323.108	447
323.337	456
323.566	489
323.795	557
324.024	572
324.253	707
324.482	1010
324.71	1554
324.939	2181
325.168	1783
325.397	929
325.626	659
325.855	547
326.084	490
326.313	495
326.542	479
326.77	548
326.999	665
327.228	903
327.457	1386
327.686	1590
327.914	1051
328.143	717
328.372	625
328.6	586
328.829	543
329.058	561
329.287	568
329.515	519
329.744	482
329.972	474
330.201	514
330.43	561
330.658	575
330.887	592
331.115	577
331.344	497
331.572	465
331.801	444
332.03	459
332.258	453
332.486	413
332.715	416
332.943	439
333.172	417
333.4	425
333.629	443
333.857	423
334.085	434
334.314	466
334.542	515
334.771	507
334.999	444
335.227	415
335.455	431
335.684	388
335.912	417
336.14	391
336.369	404
336.597	395
336.825	413
337.053	417
337.281	407
337.51	399
337.738	381
337.966	411
338.194	404
338.422	403
338.65	385
338.878	394
339.106	372
339.334	380
339.562	383
339.79	381
340.018	396
340.246	402
340.474	391
340.702	390
340.93	379
341.158	381
341.386	379
341.614	399
341.842	364
342.07	387
342.298	369
342.526	366
342.754	387
342.981	381
343.209	378
343.437	376
343.665	383
343.893	384
344.12	392
344.348	397
344.576	401
344.804	413
345.031	404
345.259	427
345.487	401
345.714	399
345.942	379
346.17	391
346.397	376
346.625	384
346.853	377
347.08	379
347.308	368
347.535	397
347.763	397
347.99	395
348.218	378
348.445	397
348.673	404
348.9	382
349.128	382
349.355	362
349.583	371
349.81	368
350.037	398
350.265	367
350.492	373
350.72	365
350.947	379
351.174	387
351.402	397
351.629	384
351.856	358
352.083	405
352.311	399
352.538	406
352.765	394
352.992	389
353.22	377
353.447	384
353.674	386
353.901	377
354.128	361
354.355	329
354.583	366
354.81	361
355.037	357
355.264	355
355.491	333
355.718	337
355.945	334
356.172	347
356.399	353
356.626	340
356.853	350
357.08	356
357.307	343
357.534	344
357.761	331
357.988	359
358.215	348
358.441	351
358.668	364
358.895	354
359.122	362
359.349	369
359.576	380
359.802	405
360.029	421
360.256	451
360.483	422
360.709	383
360.936	393
361.163	386
361.39	369
361.616	378
361.843	361
362.07	389
362.296	385
362.523	383
362.749	366
362.976	368
363.203	375
363.429	375
363.656	368
363.882	353
364.109	358
364.335	354
364.562	367
364.788	369
365.015	358
365.241	359
365.468	386
365.694	363
365.92	364
366.147	374
366.373	371
366.599	346
366.826	368
367.052	354
367.278	339
367.505	362
367.731	349
367.957	340
368.184	370
368.41	367
368.636	364
368.862	384
369.089	370
369.315	362
369.541	356
369.767	366
369.993	354
370.219	366
370.445	361
370.672	354
370.898	347
371.124	349
371.35	357
371.576	362
371.802	337
372.028	338
372.254	345
372.48	339
372.706	347
372.932	341
373.158	354
373.384	362
373.61	363
373.835	354
374.061	370
374.287	369
374.513	366
374.739	350
374.965	358
375.191	358
375.416	381
375.642	351
375.868	364
376.094	367
376.319	347
376.545	366
376.771	336
376.997	350
377.222	344
377.448	345
377.674	348
377.899	337
378.125	363
378.35	322
378.576	353
378.802	349
379.027	349
379.253	355
379.478	352
379.704	356
379.929	332
380.155	348
380.38	362
380.606	361
380.831	349
381.057	364
381.282	352
381.507	356
381.733	361
381.958	370
382.184	351
382.409	344
382.634	354
382.86	352
383.085	353
383.31	344
383.535	338
383.761	350
383.986	350
384.211	347
384.436	368
384.662	352
384.887	367
385.112	349
385.337	368
385.562	363
385.787	343
386.013	379
386.238	391
386.463	381
386.688	368
386.913	369
387.138	367
387.363	368
387.588	366
387.813	370
388.038	378
388.263	365
388.488	376
388.713	370
388.938	367
389.163	379
389.387	383
389.612	384
389.837	384
390.062	360
390.287	368
390.512	350
390.736	369
390.961	358
391.186	387
391.411	369
391.636	387
391.86	389
392.085	393
392.31	381
392.534	373
392.759	383
392.984	385
393.208	387
393.433	367
393.658	378
393.882	381
394.107	379
394.331	395
394.556	398
394.78	365
395.005	381
395.229	369
395.454	385
395.678	389
395.903	381
396.127	403
396.352	393
396.576	397
396.801	393
397.025	386
397.249	387
397.474	389
397.698	392
397.922	409
398.147	396
398.371	422
398.595	418
398.82	409
399.044	426
399.268	433
399.492	428
399.717	456
399.941	497
400.165	494
400.389	499
400.613	474
400.837	441
401.062	425
401.286	418
401.51	423
401.734	399
401.958	428
402.182	418
402.406	449
402.63	455
402.854	419
403.078	424
403.302	447
403.526	443
403.75	439
403.974	423
404.198	435
404.422	439
404.645	440
404.869	427
405.093	475
405.317	507
405.541	539
405.765	482
405.988	461
406.212	471
406.436	505
406.66	532
406.883	475
407.107	509
407.331	540
407.555	596
407.778	568
408.002	502
408.226	491
408.449	488
408.673	483
408.896	519
409.12	528
409.344	522
409.567	480
409.791	441
410.014	437
410.238	435
410.461	431
410.685	447
410.908	450
411.132	488
411.355	508
411.578	517
411.802	463
412.025	441
412.249	437
412.472	476
412.695	515
412.919	491
413.142	458
413.365	427
413.589	425
413.812	432
414.035	431
414.258	436
414.482	417
414.705	406
414.928	405
415.151	413
415.374	432
415.597	419
415.821	417
416.044	412
416.267	419
416.49	423
416.713	402
416.936	383
417.159	412
417.382	426
417.605	404
417.828	433
418.051	448
418.274	439
418.497	413
418.72	417
418.943	417
419.166	434
419.389	431
419.611	467
419.834	443
420.057	439
420.28	429
420.503	421
420.726	427
420.948	447
421.171	473
421.394	493
421.617	466
421.839	444
422.062	451
422.285	461
422.507	481
422.73	571
422.953	537
423.175	490
423.398	449
423.621	454
423.843	476
424.066	463
424.288	467
424.511	494
424.733	508
424.956	607
425.178	592
425.401	578
425.623	585
425.846	515
426.068	495
426.291	475
426.513	462
426.735	491
426.958	528
427.18	613
427.402	687
427.625	777
427.847	685
428.069	605
428.292	525
428.514	484
428.736	463
428.958	455
429.181	458
429.403	447
429.625	461
429.847	483
430.069	529
430.292	542
430.514	468
430.736	444
430.958	426
431.18	440
431.402	423
431.624	412
431.846	418
432.068	426
432.29	419
432.512	416
432.734	432
432.956	411
433.178	431
433.4	435
433.622	409
433.844	413
434.066	398
434.287	401
434.509	425
434.731	443
434.953	426
435.175	458
435.397	460
435.618	493
435.84	510
436.062	604
436.284	667
436.505	522
436.727	482
436.949	472
437.17	430
437.392	447
437.614	465
437.835	508
438.057	585
438.278	656
438.5	667
438.721	710
438.943	678
439.165	523
439.386	482
439.608	491
439.829	496
440.05	523
440.272	533
440.493	549
440.715	480
440.936	470
441.158	461
441.379	453
441.6	460
441.822	461
442.043	491
442.264	592
442.486	615
442.707	532
442.928	486
443.149	539
443.371	531
443.592	565
443.813	629
444.034	671
444.255	577
444.476	494
444.698	488
444.919	475
445.14	582
445.361	541
445.582	521
445.803	607
446.024	699
446.245	693
446.466	626
446.687	514
446.908	487
447.129	477
447.35	449
447.571	444
447.792	455
448.013	461
448.234	491
448.455	523
448.675	607
448.896	684
449.117	580
449.338	575
449.559	651
449.779	751
450	582
450.221	507
450.442	478
450.662	460
450.883	459
451.104	474
451.324	456
451.545	451
451.766	413
451.986	415
452.207	421
452.428	403
452.648	408
452.869	423
453.089	409
453.31	431
453.53	411
453.751	403
453.971	408
454.192	420
454.412	427
454.633	417
454.853	391
455.073	398
455.294	433
455.514	507
455.734	469
455.955	425
456.175	409
456.395	381
456.616	379
456.836	376
457.056	383
457.276	382
457.497	384
457.717	380
457.937	390
458.157	400
458.377	400
458.598	420
458.818	478
459.038	556
459.258	586
459.478	494
459.698	436
459.918	415
460.138	439
460.358	431
460.578	429
460.798	426
461.018	422
461.238	422
461.458	432
461.678	407
461.898	413
462.118	409
462.338	423
462.558	465
462.777	442
462.997	441
463.217	462
463.437	460
463.657	455
463.876	448
464.096	430
464.316	436
464.536	440
464.755	445
464.975	469
465.195	524
465.414	594
465.634	524
465.854	462
466.073	439
466.293	427
466.512	432
466.732	425
466.951	415
467.171	422
467.391	429
467.61	428
467.829	445
468.049	452
468.268	420
468.488	419
468.707	417
468.927	378
469.146	406
469.365	404
469.585	406
469.804	412
470.023	427
470.243	432
470.462	420
470.681	431
470.901	449
471.12	418
471.339	427
471.558	412
471.777	426
471.997	410
472.216	418
472.435	467
472.654	455
472.873	419
473.092	416
473.311	449
473.53	419
473.749	420
473.968	464
474.187	579
474.406	583
474.625	450
474.844	447
475.063	409
475.282	431
475.501	439
475.72	432
475.939	428
476.158	458
476.377	436
476.596	424
476.814	450
477.033	438
477.252	450
477.471	455
477.69	458
477.908	434
478.127	455
478.346	466
478.564	481
478.783	469
479.002	464
479.22	476
479.439	467
479.658	516
479.876	525
480.095	517
480.313	545
480.532	480
480.751	507
480.969	519
481.188	605
481.406	637
481.624	556
481.843	527
482.061	515
482.28	479
482.498	484
482.717	489
482.935	496
483.153	457
483.372	481
483.59	482
483.808	476
484.027	470
484.245	509
484.463	486
484.681	503
484.9	520
485.118	516
485.336	508
485.554	525
485.772	507
485.99	491
486.209	514
486.427	487
486.645	511
486.863	533
487.081	525
487.299	543
487.517	532
487.735	518
487.953	510
488.171	536
488.389	531
488.607	532
488.825	521
489.043	537
489.261	526
489.479	531
489.696	537
489.914	530
490.132	541
490.35	540
490.568	559
490.786	567
491.003	561
491.221	577
491.439	591
491.657	608
491.874	605
492.092	615
492.31	631
492.527	620
492.745	611
492.963	611
493.18	627
493.398	619
493.615	607
493.833	624
494.05	623
494.268	633
494.485	624
494.703	615
494.92	639
495.138	597
495.355	619
495.573	621
495.79	613
496.008	636
496.225	639
496.442	604
496.66	632
496.877	637
497.094	653
497.312	653
497.529	653
497.746	664
497.963	634
498.181	655
498.398	659
498.615	691
498.832	683
499.049	678
499.267	696
499.484	701
499.701	712
499.918	722
500.135	740
500.352	775
500.569	787
500.786	778
501.003	781
501.22	814
501.437	772
501.654	769
501.871	772
502.088	761
502.305	733
502.522	697
502.739	684
502.956	665
503.172	658
503.389	647
503.606	672
503.823	641
504.04	626
504.256	654
504.473	651
504.69	644
504.907	629
505.123	599
505.34	604
505.557	587
505.773	615
505.99	607
506.207	605
506.423	596
506.64	603
506.856	584
507.073	564
507.289	590
507.506	593
507.722	595
507.939	648
508.155	585
508.372	591
508.588	575
508.805	577
509.021	589
509.238	605
509.454	612
509.67	600
509.887	588
510.103	584
510.319	603
510.536	679
510.752	1246
510.968	927
511.184	623
511.401	595
511.617	578
511.833	562
512.049	539
512.265	537
512.481	567
512.698	562
512.914	552
513.13	559
513.346	547
513.562	531
513.778	555
513.994	569
514.21	576
514.426	624
514.642	642
514.858	682
515.074	715
515.29	882
515.506	1303
515.721	1091
515.937	703
516.153	649
516.369	613
516.585	603
516.801	567
517.016	578
517.232	571
517.448	552
517.664	552
517.879	557
518.095	535
518.311	579
518.527	563
518.742	561
518.958	551
519.173	534
519.389	571
519.605	537
519.82	563
520.036	570
520.251	594
520.467	612
520.682	605
520.898	619
521.113	663
521.329	711
521.544	851
521.76	1060
521.975	1805
522.19	1724
522.406	918
522.621	669
522.836	609
523.052	548
523.267	531
523.482	521
523.698	513
523.913	542
524.128	505
524.343	485
524.559	496
524.774	477
524.989	479
525.204	493
525.419	512
525.634	486
525.849	470
526.064	473
526.28	476
526.495	446
526.71	459
526.925	431
527.14	459
527.355	445
527.57	462
527.785	459
527.999	437
528.214	447
528.429	475
528.644	461
528.859	449
529.074	452
529.289	483
529.503	564
529.718	530
529.933	488
530.148	466
530.363	459
530.577	440
530.792	436
531.007	441
531.221	458
531.436	435
531.651	437
531.865	422
532.08	443
532.295	429
532.509	413
532.724	435
532.938	429
533.153	438
533.367	417
533.582	421
533.796	417
534.011	443
534.225	403
534.44	430
534.654	416
534.868	423
535.083	424
535.297	402
535.511	437
535.726	429
535.94	439
536.154	449
536.369	406
536.583	397
536.797	397
537.011	393
537.225	410
537.44	400
537.654	415
537.868	389
538.082	410
538.296	402
538.51	381
538.724	429
538.938	431
539.153	390
539.367	411
539.581	397
539.795	407
540.009	417
540.222	424
540.436	430
540.65	408
540.864	403
541.078	411
541.292	408
541.506	403
541.72	419
541.934	409
542.147	404
542.361	398
542.575	404
542.789	413
543.002	391
543.216	414
543.43	386
543.644	411
543.857	412
544.071	397
544.285	396
544.498	413
544.712	393
544.925	389
545.139	386
545.352	378
545.566	405
545.779	388
545.993	390
546.206	398
546.42	396
546.633	383
546.847	384
547.06	394
547.274	382
547.487	381
547.7	388
547.914	376
548.127	374
548.34	388
548.554	373
548.767	397
548.98	375
549.193	381
549.407	374
549.62	364
549.833	381
550.046	355
550.259	382
550.473	383
550.686	366
550.899	387
551.112	369
551.325	383
551.538	365
551.751	387
551.964	379
552.177	378
552.39	356
552.603	370
552.816	372
553.029	373
553.242	395
553.455	377
553.667	390
553.88	416
554.093	397
554.306	395
554.519	385
554.732	377
554.944	371
555.157	345
555.37	354
555.583	345
555.795	371
556.008	356
556.221	361
556.433	352
556.646	358
556.859	352
557.071	349
557.284	362
557.496	325
557.709	349
557.921	349
558.134	329
558.346	333
558.559	345
558.771	324
558.984	339
559.196	340
559.409	337
559.621	345
559.833	324
560.046	326
560.258	337
560.47	341
560.683	345
560.895	340
561.107	334
561.32	324
561.532	352
561.744	343
561.956	319
562.168	337
562.381	327
562.593	329
562.805	348
563.017	344
563.229	347
563.441	331
563.653	342
563.865	329
564.077	333
564.289	345
564.501	343
564.713	356
564.925	355
565.137	351
565.349	362
565.561	348
565.773	364
565.985	376
566.197	377
566.408	373
566.62	368
566.832	383
567.044	368
567.255	378
567.467	410
567.679	388
567.891	411
568.102	395
568.314	390
568.526	395
568.737	380
568.949	358
569.161	353
569.372	354
569.584	341
569.795	337
570.007	355
570.218	401
570.43	379
570.641	349
570.853	333
571.064	309
571.276	309
571.487	318
571.698	335
571.91	317
572.121	303
572.333	297
572.544	321
572.755	307
572.966	301
573.178	292
573.389	299
573.6	309
573.811	300
574.023	296
574.234	299
574.445	290
574.656	290
574.867	295
575.078	290
575.289	290
575.501	305
575.712	292
575.923	284
576.134	277
576.345	287
576.556	308
576.767	288
576.978	295
577.188	281
577.399	291
577.61	291
577.821	301
578.032	305
578.243	318
578.454	581
578.665	421
578.875	297
579.086	271
579.297	290
579.508	296
579.718	287
579.929	279
580.14	286
580.35	273
580.561	275
580.772	275
580.982	268
581.193	249
581.403	260
581.614	284
581.825	273
582.035	294
582.246	291
582.456	267
582.667	270
582.877	275
583.087	282
583.298	257
583.508	281
583.719	273
583.929	263
584.139	258
584.35	267
584.56	255
584.77	284
584.981	273
585.191	279
585.401	263
585.611	265
585.821	258
586.032	248
586.242	265
586.452	256
586.662	263
586.872	273
587.082	251
587.292	269
587.502	252
587.713	244
587.923	243
588.133	257
588.343	255
588.553	248
588.762	263
588.972	250
589.182	302
589.392	281
589.602	263
589.812	278
590.022	279
590.232	262
590.441	250
590.651	256
590.861	254
591.071	232
591.281	263
591.49	256
591.7	264
591.91	270
592.119	251
592.329	258
592.539	287
592.748	269
592.958	271
593.167	237
593.377	242
593.587	267
593.796	255
594.006	276
594.215	267
594.424	263
594.634	249
594.843	268
595.053	267
595.262	268
595.472	267
595.681	243
595.89	247
596.1	249
596.309	256
596.518	249
596.727	252
596.937	240
597.146	245
597.355	252
597.564	229
597.774	236
597.983	248
598.192	234
598.401	229
598.61	225
598.819	222
599.028	240
599.237	217
599.446	235
599.655	220
599.864	240
600.073	238
600.282	241
600.491	230
600.7	242
600.909	223
601.118	221
601.327	235
601.536	227
601.745	216
601.953	220
602.162	228
602.371	210
602.58	216
602.789	244
602.997	220
603.206	251
603.415	232
603.623	227
603.832	225
604.041	201
604.249	217
604.458	207
604.666	221
604.875	222
605.084	211
605.292	213
605.501	210
605.709	222
605.918	205
606.126	214
606.334	214
606.543	212
606.751	231
606.96	212
607.168	220
607.376	210
607.585	204
607.793	209
608.001	219
608.21	232
608.418	211
608.626	222
608.834	200
609.043	192
609.251	229
609.459	202
609.667	210
609.875	218
610.083	193
610.291	216
610.499	227
610.707	218
610.916	217
611.124	228
611.332	222
611.54	213
611.748	244
611.955	208
612.163	216
612.371	214
612.579	213
612.787	221
612.995	213
613.203	209
613.411	226
613.618	199
613.826	224
614.034	201
614.242	211
614.449	204
614.657	218
614.865	219
615.072	208
615.28	226
615.488	201
615.695	200
615.903	212
616.111	209
616.318	211
616.526	203
616.733	206
616.941	208
617.148	224
617.356	201
617.563	217
617.771	208
617.978	193
618.185	206
618.393	213
618.6	218
618.807	210
619.015	197
619.222	195
619.429	197
619.637	203
619.844	204
620.051	200
620.258	196
620.466	202
620.673	190
620.88	209
621.087	192
621.294	189
621.501	190
621.708	183
621.915	197
622.122	191
622.329	208
622.536	216
622.743	191
622.95	195
623.157	201
623.364	201
623.571	182
623.778	207
623.985	201
624.192	174
624.399	185
624.606	204
624.812	197
625.019	185
625.226	184
625.433	210
625.639	207
625.846	191
626.053	198
626.259	178
626.466	180
626.673	167
626.879	176
627.086	177
627.293	179
627.499	179
627.706	178
627.912	180
628.119	176
628.325	191
628.532	187
628.738	197
628.945	180
629.151	168
629.357	175
629.564	161
629.77	179
629.976	186
630.183	178
630.389	193
630.595	171
630.802	177
631.008	176
631.214	164
631.42	172
631.627	190
631.833	179
632.039	183
632.245	159
632.451	188
632.657	161
632.863	181
633.069	172
633.275	179
633.481	167
633.688	175
633.893	168
634.099	170
634.305	165
634.511	173
634.717	166
634.923	163
635.129	169
635.335	159
635.541	149
635.747	176
635.952	166
636.158	178
636.364	165
636.57	166
636.775	167
636.981	167
637.187	176
637.392	156
637.598	159
637.804	159
638.009	177
638.215	172
638.421	169
638.626	167
638.832	156
639.037	148
639.243	163
639.448	161
639.654	169
639.859	164
640.065	174
640.27	171
640.475	160
640.681	163
640.886	148
641.091	154
641.297	163
641.502	161
641.707	156
641.913	161
642.118	157
642.323	159
642.528	167
642.733	152
642.939	175
643.144	160
643.349	165
643.554	173
643.759	155
643.964	144
644.169	155
644.374	145
644.579	163
644.784	145
644.989	159
645.194	152
645.399	158
645.604	153
645.809	161
646.014	156
646.219	148
646.423	155
646.628	169
646.833	157
647.038	165
647.243	177
647.447	166
647.652	157
647.857	154
648.062	156
648.266	158
648.471	154
648.676	143
648.88	161
649.085	140
649.289	153
649.494	163
649.698	165
649.903	187
650.107	165
650.312	169
650.516	164
650.721	141
650.925	142
651.13	123
651.334	141
651.539	151
651.743	147
651.947	137
652.152	153
652.356	137
652.56	133
652.764	133
652.969	153
653.173	137
653.377	139
653.581	134
653.785	139
653.99	139
654.194	128
654.398	147
654.602	129
654.806	123
655.01	123
655.214	133
655.418	139
655.622	143
655.826	129
656.03	135
656.234	130
656.438	133
656.642	131
656.846	123
657.049	121
657.253	125
657.457	127
657.661	114
657.865	112
658.068	121
658.272	107
658.476	103
658.68	114
658.883	99
659.087	113
659.291	108
659.494	102
659.698	119
659.901	117
660.105	102
660.309	105
660.512	96
660.716	91
660.919	91
661.123	102
661.326	96
661.53	79
661.733	96
661.936	90
662.14	99
662.343	82
662.546	97
662.75	91
662.953	93
663.156	78
663.36	99
663.563	95
663.766	82
663.969	90
664.173	94
664.376	90
664.579	99
664.782	90
664.985	83
665.188	89
665.391	78
665.594	87
665.797	86
666	88
666.203	97
666.406	95
666.609	87
666.812	96
667.015	85
667.218	96
667.421	81
667.624	95
667.827	91
668.03	90
668.232	86
668.435	87
668.638	86
668.841	74
669.043	84
669.246	85
669.449	88
669.651	96
669.854	88
670.057	88
670.259	98
670.462	94
670.665	72
670.867	88
671.07	102
671.272	90
671.475	86
671.677	97
671.88	91
672.082	89
672.284	91
672.487	105
672.689	85
672.892	90
