Data from 1965.PennyLincolnUp.Lamp.En5.5.200Scan.071719.P1._HRD10591_14-08-59-911.txt Node
Date: Thu Jul 18 14:08:59 EDT 2019
User: cochatt
Spectrometer: HR+D1059
Trigger mode: 1
Integration Time (sec): 1.000000E-1
Scans to average: 1
Electric dark correction enabled: true
Nonlinearity correction enabled: false
Boxcar width: 0
XAxis mode: Wavelengths
Number of Pixels in Spectrum: 2048
>>>>>Begin Spectral Data<<<<<
223.165	-13
223.4	-13
223.635	-13
223.869	-24
224.104	-16
224.338	-18
224.573	5
224.808	-14
225.042	-12
225.277	-7
225.511	-7
225.746	3
225.98	12
226.215	16
226.449	15
226.683	18
226.918	13
227.152	29
227.387	32
227.621	43
227.856	41
228.09	52
228.324	49
228.559	62
228.793	65
229.027	94
229.262	105
229.496	104
229.73	132
229.964	129
230.199	144
230.433	111
230.667	123
230.901	108
231.136	105
231.37	104
231.604	108
231.838	97
232.072	107
232.306	113
232.541	103
232.775	106
233.009	112
233.243	105
233.477	110
233.711	111
233.945	118
234.179	123
234.413	121
234.647	102
234.881	115
235.115	108
235.349	113
235.583	108
235.817	110
236.051	121
236.285	126
236.519	114
236.753	132
236.987	140
237.221	167
237.455	202
237.689	161
237.922	122
238.156	135
238.39	132
238.624	132
238.858	134
239.091	111
239.325	111
239.559	121
239.793	125
240.027	126
240.26	126
240.494	142
240.728	133
240.961	121
241.195	111
241.429	120
241.662	124
241.896	128
242.13	104
242.363	129
242.597	129
242.83	122
243.064	124
243.298	119
243.531	137
243.765	130
243.998	122
244.232	140
244.465	147
244.699	136
244.932	136
245.166	137
245.399	133
245.633	135
245.866	143
246.099	134
246.333	136
246.566	132
246.8	147
247.033	145
247.266	134
247.5	154
247.733	168
247.966	157
248.2	131
248.433	162
248.666	171
248.899	166
249.133	188
249.366	192
249.599	199
249.832	153
250.066	164
250.299	158
250.532	155
250.765	179
250.998	200
251.231	218
251.465	192
251.698	178
251.931	166
252.164	176
252.397	192
252.63	187
252.863	198
253.096	188
253.329	201
253.562	198
253.795	204
254.028	194
254.261	200
254.494	200
254.727	236
254.96	253
255.193	257
255.426	214
255.659	215
255.892	209
256.124	209
256.357	232
256.59	196
256.823	199
257.056	187
257.289	205
257.521	191
257.754	189
257.987	193
258.22	191
258.452	196
258.685	191
258.918	168
259.151	193
259.383	182
259.616	185
259.849	205
260.081	216
260.314	221
260.547	234
260.779	212
261.012	206
261.244	210
261.477	189
261.71	181
261.942	193
262.175	226
262.407	211
262.64	186
262.872	205
263.105	190
263.337	189
263.57	180
263.802	190
264.035	185
264.267	190
264.499	196
264.732	178
264.964	173
265.197	204
265.429	177
265.661	180
265.894	200
266.126	198
266.358	191
266.591	193
266.823	195
267.055	200
267.287	209
267.52	213
267.752	208
267.984	184
268.216	208
268.448	198
268.681	202
268.913	218
269.145	225
269.377	226
269.609	256
269.841	260
270.073	250
270.306	262
270.538	297
270.77	269
271.002	261
271.234	261
271.466	272
271.698	270
271.93	292
272.162	262
272.394	264
272.626	255
272.858	252
273.09	244
273.322	253
273.553	231
273.785	231
274.017	226
274.249	244
274.481	229
274.713	245
274.945	230
275.176	241
275.408	237
275.64	233
275.872	230
276.104	245
276.335	230
276.567	240
276.799	260
277.031	269
277.262	281
277.494	285
277.726	273
277.957	253
278.189	249
278.421	241
278.652	247
278.884	268
279.115	228
279.347	229
279.579	231
279.81	228
280.042	220
280.273	220
280.505	228
280.736	234
280.968	218
281.199	232
281.431	222
281.662	216
281.894	229
282.125	240
282.356	238
282.588	265
282.819	276
283.051	252
283.282	227
283.513	223
283.745	240
283.976	256
284.207	237
284.439	242
284.67	235
284.901	233
285.132	240
285.364	238
285.595	224
285.826	252
286.057	252
286.288	260
286.52	237
286.751	245
286.982	246
287.213	247
287.444	244
287.675	256
287.906	223
288.138	259
288.369	264
288.6	253
288.831	252
289.062	250
289.293	274
289.524	260
289.755	248
289.986	258
290.217	237
290.448	251
290.679	230
290.91	246
291.141	245
291.371	246
291.602	255
291.833	255
292.064	235
292.295	239
292.526	245
292.757	248
292.987	258
293.218	252
293.449	247
293.68	245
293.91	249
294.141	253
294.372	255
294.603	246
294.833	247
295.064	250
295.295	267
295.525	260
295.756	264
295.987	268
296.217	294
296.448	293
296.679	267
296.909	258
297.14	259
297.37	257
297.601	262
297.831	266
298.062	257
298.292	270
298.523	264
298.753	262
298.984	273
299.214	267
299.445	261
299.675	272
299.905	282
300.136	258
300.366	270
300.597	269
300.827	272
301.057	276
301.288	287
301.518	281
301.748	280
301.979	273
302.209	289
302.439	298
302.669	257
302.9	285
303.13	282
303.36	292
303.59	295
303.82	293
304.051	295
304.281	278
304.511	273
304.741	273
304.971	291
305.201	282
305.431	281
305.661	303
305.891	298
306.121	298
306.352	300
306.582	297
306.812	306
307.042	291
307.272	298
307.502	290
307.731	287
307.961	297
308.191	298
308.421	281
308.651	310
308.881	316
309.111	307
309.341	294
309.571	307
309.8	310
310.03	323
310.26	324
310.49	338
310.72	350
310.949	370
311.179	375
311.409	348
311.639	328
311.868	343
312.098	350
312.328	357
312.557	348
312.787	382
313.017	376
313.246	356
313.476	340
313.706	329
313.935	361
314.165	348
314.394	356
314.624	335
314.853	335
315.083	336
315.312	308
315.542	337
315.771	319
316.001	331
316.23	328
316.46	330
316.689	337
316.919	329
317.148	350
317.377	358
317.607	326
317.836	360
318.065	342
318.295	330
318.524	305
318.753	332
318.983	327
319.212	340
319.441	345
319.67	360
319.9	356
320.129	346
320.358	325
320.587	343
320.816	339
321.046	351
321.275	352
321.504	346
321.733	361
321.962	364
322.191	375
322.42	375
322.649	402
322.878	420
323.108	415
323.337	418
323.566	462
323.795	483
324.024	541
324.253	669
324.482	975
324.71	1468
324.939	1997
325.168	1704
325.397	936
325.626	622
325.855	525
326.084	482
326.313	470
326.542	502
326.77	530
326.999	627
327.228	866
327.457	1304
327.686	1485
327.914	1014
328.143	676
328.372	582
328.6	551
328.829	527
329.058	544
329.287	548
329.515	539
329.744	471
329.972	471
330.201	476
330.43	514
330.658	542
330.887	588
331.115	560
331.344	467
331.572	448
331.801	444
332.03	429
332.258	450
332.486	409
332.715	388
332.943	400
333.172	400
333.4	401
333.629	414
333.857	423
334.085	434
334.314	426
334.542	478
334.771	512
334.999	442
335.227	407
335.455	414
335.684	403
335.912	394
336.14	390
336.369	382
336.597	414
336.825	396
337.053	390
337.281	407
337.51	374
337.738	402
337.966	387
338.194	375
338.422	401
338.65	391
338.878	377
339.106	390
339.334	390
339.562	383
339.79	361
340.018	375
340.246	372
340.474	389
340.702	399
340.93	368
341.158	352
341.386	357
341.614	392
341.842	380
342.07	369
342.298	367
342.526	378
342.754	347
342.981	360
343.209	357
343.437	346
343.665	366
343.893	365
344.12	366
344.348	360
344.576	375
344.804	383
345.031	397
345.259	404
345.487	369
345.714	383
345.942	380
346.17	366
346.397	387
346.625	352
346.853	366
347.08	345
347.308	382
347.535	384
347.763	391
347.99	374
348.218	365
348.445	384
348.673	384
348.9	380
349.128	362
349.355	346
349.583	353
349.81	348
350.037	352
350.265	357
350.492	343
350.72	360
350.947	402
351.174	368
351.402	376
351.629	380
351.856	350
352.083	398
352.311	392
352.538	382
352.765	384
352.992	382
353.22	378
353.447	352
353.674	375
353.901	356
354.128	344
354.355	335
354.583	339
354.81	336
355.037	338
355.264	323
355.491	322
355.718	344
355.945	337
356.172	339
356.399	324
356.626	334
356.853	345
357.08	328
357.307	333
357.534	345
357.761	341
357.988	335
358.215	348
358.441	349
358.668	342
358.895	334
359.122	341
359.349	364
359.576	367
359.802	391
360.029	400
360.256	438
360.483	429
360.709	414
360.936	375
361.163	374
361.39	364
361.616	368
361.843	366
362.07	376
362.296	368
362.523	358
362.749	342
362.976	377
363.203	367
363.429	346
363.656	344
363.882	318
364.109	366
364.335	334
364.562	357
364.788	347
365.015	336
365.241	341
365.468	363
365.694	335
365.92	348
366.147	350
366.373	334
366.599	351
366.826	342
367.052	337
367.278	315
367.505	342
367.731	360
367.957	345
368.184	338
368.41	350
368.636	362
368.862	346
369.089	362
369.315	360
369.541	354
369.767	344
369.993	345
370.219	354
370.445	357
370.672	344
370.898	310
371.124	333
371.35	343
371.576	329
371.802	347
372.028	335
372.254	334
372.48	342
372.706	356
372.932	346
373.158	341
373.384	324
373.61	336
373.835	334
374.061	338
374.287	330
374.513	350
374.739	342
374.965	336
375.191	316
375.416	334
375.642	339
375.868	343
376.094	351
376.319	327
376.545	333
376.771	332
376.997	349
377.222	337
377.448	335
377.674	341
377.899	348
378.125	328
378.35	337
378.576	321
378.802	334
379.027	354
379.253	337
379.478	346
379.704	337
379.929	322
380.155	344
380.38	346
380.606	345
380.831	343
381.057	331
381.282	316
381.507	351
381.733	346
381.958	343
382.184	345
382.409	360
382.634	328
382.86	353
383.085	359
383.31	345
383.535	353
383.761	331
383.986	330
384.211	365
384.436	364
384.662	357
384.887	342
385.112	363
385.337	358
385.562	354
385.787	352
386.013	374
386.238	379
386.463	350
386.688	364
386.913	360
387.138	378
387.363	371
387.588	377
387.813	361
388.038	352
388.263	354
388.488	363
388.713	365
388.938	362
389.163	366
389.387	372
389.612	342
389.837	371
390.062	363
390.287	349
390.512	348
390.736	352
390.961	369
391.186	358
391.411	363
391.636	340
391.86	356
392.085	363
392.31	369
392.534	373
392.759	375
392.984	371
393.208	369
393.433	369
393.658	367
393.882	350
394.107	346
394.331	347
394.556	369
394.78	372
395.005	369
395.229	386
395.454	372
395.678	355
395.903	373
396.127	396
396.352	392
396.576	386
396.801	385
397.025	364
397.249	393
397.474	388
397.698	401
397.922	380
398.147	408
398.371	420
398.595	420
398.82	402
399.044	414
399.268	411
399.492	432
399.717	452
399.941	479
400.165	488
400.389	477
400.613	467
400.837	443
401.062	413
401.286	431
401.51	402
401.734	393
401.958	411
402.182	408
402.406	424
402.63	439
402.854	412
403.078	405
403.302	425
403.526	422
403.75	413
403.974	433
404.198	443
404.422	425
404.645	432
404.869	420
405.093	442
405.317	477
405.541	536
405.765	491
405.988	441
406.212	461
406.436	475
406.66	486
406.883	468
407.107	472
407.331	525
407.555	544
407.778	553
408.002	522
408.226	475
408.449	446
408.673	466
408.896	509
409.12	554
409.344	507
409.567	416
409.791	437
410.014	438
410.238	426
410.461	428
410.685	439
410.908	455
411.132	481
411.355	487
411.578	476
411.802	442
412.025	407
412.249	440
412.472	442
412.695	473
412.919	494
413.142	463
413.365	405
413.589	423
413.812	416
414.035	439
414.258	410
414.482	393
414.705	394
414.928	411
415.151	402
415.374	386
415.597	403
415.821	396
416.044	403
416.267	394
416.49	398
416.713	384
416.936	386
417.159	403
417.382	420
417.605	400
417.828	435
418.051	432
418.274	410
418.497	395
418.72	409
418.943	413
419.166	410
419.389	448
419.611	415
419.834	416
420.057	434
420.28	414
420.503	421
420.726	420
420.948	410
421.171	443
421.394	492
421.617	445
421.839	443
422.062	404
422.285	439
422.507	493
422.73	553
422.953	505
423.175	476
423.398	448
423.621	440
423.843	450
424.066	455
424.288	463
424.511	465
424.733	515
424.956	562
425.178	552
425.401	542
425.623	575
425.846	498
426.068	450
426.291	461
426.513	471
426.735	473
426.958	507
427.18	575
427.402	690
427.625	743
427.847	669
428.069	573
428.292	513
428.514	450
428.736	445
428.958	428
429.181	410
429.403	410
429.625	429
429.847	473
430.069	518
430.292	517
430.514	454
430.736	429
430.958	405
431.18	412
431.402	393
431.624	384
431.846	416
432.068	397
432.29	403
432.512	404
432.734	436
432.956	418
433.178	418
433.4	418
433.622	423
433.844	403
434.066	390
434.287	397
434.509	415
434.731	440
434.953	430
435.175	448
435.397	453
435.618	428
435.84	490
436.062	568
436.284	633
436.505	533
436.727	471
436.949	428
437.17	419
437.392	438
437.614	438
437.835	477
438.057	560
438.278	646
438.5	643
438.721	698
438.943	671
439.165	534
439.386	454
439.608	484
439.829	470
440.05	514
440.272	558
440.493	517
440.715	475
440.936	452
441.158	429
441.379	433
441.6	461
441.822	470
442.043	497
442.264	574
442.486	590
442.707	503
442.928	473
443.149	496
443.371	516
443.592	522
443.813	609
444.034	652
444.255	528
444.476	495
444.698	481
444.919	467
445.14	559
445.361	509
445.582	512
445.803	541
446.024	631
446.245	654
446.466	592
446.687	514
446.908	487
447.129	448
447.35	433
447.571	436
447.792	424
448.013	460
448.234	465
448.455	494
448.675	586
448.896	651
449.117	564
449.338	573
449.559	649
449.779	722
450	584
450.221	487
450.442	460
450.662	425
450.883	442
451.104	446
451.324	446
451.545	421
451.766	404
451.986	377
452.207	397
452.428	385
452.648	404
452.869	370
453.089	420
453.31	422
453.53	410
453.751	404
453.971	410
454.192	421
454.412	396
454.633	388
454.853	380
455.073	393
455.294	402
455.514	488
455.734	457
455.955	403
456.175	382
456.395	377
456.616	380
456.836	372
457.056	368
457.276	370
457.497	352
457.717	379
457.937	386
458.157	374
458.377	378
458.598	403
458.818	456
459.038	521
459.258	528
459.478	450
459.698	423
459.918	412
460.138	409
460.358	418
460.578	399
460.798	405
461.018	413
461.238	393
461.458	422
461.678	397
461.898	412
462.118	409
462.338	404
462.558	426
462.777	414
462.997	438
463.217	423
463.437	440
463.657	435
463.876	416
464.096	420
464.316	430
464.536	437
464.755	444
464.975	461
465.195	503
465.414	584
465.634	489
465.854	433
466.073	453
466.293	418
466.512	409
466.732	391
466.951	421
467.171	382
467.391	406
467.61	402
467.829	411
468.049	408
468.268	428
468.488	396
468.707	384
468.927	396
469.146	399
469.365	368
469.585	378
469.804	406
470.023	421
470.243	423
470.462	430
470.681	422
470.901	418
471.12	397
471.339	416
471.558	424
471.777	395
471.997	409
472.216	405
472.435	442
472.654	429
472.873	417
473.092	408
473.311	411
473.53	402
473.749	407
473.968	466
474.187	528
474.406	544
474.625	459
474.844	411
475.063	410
475.282	403
475.501	427
475.72	423
475.939	402
476.158	420
476.377	434
476.596	413
476.814	417
477.033	441
477.252	431
477.471	416
477.69	433
477.908	454
478.127	428
478.346	418
478.564	428
478.783	438
479.002	434
479.22	444
479.439	469
479.658	480
479.876	488
480.095	476
480.313	493
480.532	511
480.751	480
480.969	519
481.188	546
481.406	602
481.624	517
481.843	489
482.061	496
482.28	462
482.498	491
482.717	488
482.935	486
483.153	482
483.372	478
483.59	489
483.808	457
484.027	476
484.245	472
484.463	472
484.681	500
484.9	505
485.118	469
485.336	489
485.554	486
485.772	481
485.99	486
486.209	493
486.427	492
486.645	514
486.863	514
487.081	545
487.299	506
487.517	503
487.735	526
487.953	532
488.171	523
488.389	516
488.607	516
488.825	516
489.043	526
489.261	533
489.479	516
489.696	509
489.914	513
490.132	540
490.35	526
490.568	520
490.786	551
491.003	566
491.221	561
491.439	561
491.657	573
491.874	556
492.092	585
492.31	581
492.527	582
492.745	580
492.963	588
493.18	597
493.398	588
493.615	608
493.833	595
494.05	594
494.268	588
494.485	589
494.703	602
494.92	597
495.138	587
495.355	612
495.573	618
495.79	608
496.008	620
496.225	601
496.442	603
496.66	594
496.877	617
497.094	612
497.312	622
497.529	624
497.746	620
497.963	623
498.181	638
498.398	654
498.615	668
498.832	673
499.049	698
499.267	656
499.484	679
499.701	704
499.918	718
500.135	747
500.352	733
500.569	757
500.786	774
501.003	757
501.22	749
501.437	740
501.654	731
501.871	732
502.088	718
502.305	693
502.522	667
502.739	649
502.956	612
503.172	619
503.389	621
503.606	653
503.823	637
504.04	615
504.256	625
504.473	604
504.69	608
504.907	585
505.123	580
505.34	588
505.557	573
505.773	598
505.99	575
506.207	580
506.423	566
506.64	593
506.856	567
507.073	554
507.289	556
507.506	560
507.722	598
507.939	608
508.155	578
508.372	551
508.588	534
508.805	544
509.021	565
509.238	558
509.454	570
509.67	552
509.887	566
510.103	555
510.319	580
510.536	685
510.752	1218
510.968	957
511.184	576
511.401	563
511.617	535
511.833	536
512.049	536
512.265	527
512.481	522
512.698	530
512.914	521
513.13	521
513.346	536
513.562	526
513.778	548
513.994	551
514.21	556
514.426	583
514.642	640
514.858	662
515.074	703
515.29	871
515.506	1337
515.721	1068
515.937	684
516.153	609
516.369	580
516.585	554
516.801	556
517.016	555
517.232	548
517.448	556
517.664	550
517.879	531
518.095	541
518.311	550
518.527	540
518.742	532
518.958	536
519.173	521
519.389	515
519.605	545
519.82	551
520.036	574
520.251	568
520.467	598
520.682	601
520.898	652
521.113	615
521.329	698
521.544	796
521.76	1034
521.975	1809
522.19	1768
522.406	914
522.621	659
522.836	568
523.052	552
523.267	539
523.482	486
523.698	486
523.913	499
524.128	500
524.343	488
524.559	484
524.774	476
524.989	470
525.204	470
525.419	469
525.634	460
525.849	464
526.064	458
526.28	464
526.495	417
526.71	445
526.925	446
527.14	460
527.355	414
527.57	436
527.785	401
527.999	440
528.214	434
528.429	431
528.644	408
528.859	427
529.074	444
529.289	460
529.503	564
529.718	535
529.933	460
530.148	466
530.363	455
530.577	449
530.792	422
531.007	430
531.221	432
531.436	426
531.651	417
531.865	406
532.08	403
532.295	416
532.509	404
532.724	407
532.938	433
533.153	403
533.367	414
533.582	432
533.796	402
534.011	414
534.225	430
534.44	416
534.654	401
534.868	410
535.083	393
535.297	408
535.511	418
535.726	413
535.94	412
536.154	416
536.369	409
536.583	397
536.797	404
537.011	386
537.225	384
537.44	404
537.654	412
537.868	393
538.082	388
538.296	418
538.51	422
538.724	394
538.938	396
539.153	410
539.367	406
539.581	420
539.795	391
540.009	396
540.222	392
540.436	386
540.65	390
540.864	381
541.078	398
541.292	377
541.506	400
541.72	394
541.934	398
542.147	405
542.361	393
542.575	382
542.789	370
543.002	380
543.216	408
543.43	391
543.644	396
543.857	412
544.071	397
544.285	386
544.498	372
544.712	373
544.925	398
545.139	382
545.352	382
545.566	385
545.779	376
545.993	390
546.206	384
546.42	385
546.633	380
546.847	386
547.06	367
547.274	388
547.487	383
547.7	380
547.914	362
548.127	372
548.34	362
548.554	365
548.767	373
548.98	386
549.193	362
549.407	378
549.62	364
549.833	365
550.046	378
550.259	362
550.473	358
550.686	380
550.899	368
551.112	374
551.325	362
551.538	362
551.751	357
551.964	366
552.177	354
552.39	365
552.603	364
552.816	376
553.029	368
553.242	351
553.455	364
553.667	377
553.88	380
554.093	387
554.306	373
554.519	374
554.732	357
554.944	351
555.157	368
555.37	343
555.583	343
555.795	367
556.008	342
556.221	336
556.433	334
556.646	352
556.859	337
557.071	353
557.284	322
557.496	335
557.709	322
557.921	333
558.134	337
558.346	329
558.559	326
558.771	332
558.984	341
559.196	342
559.409	328
559.621	315
559.833	341
560.046	321
560.258	316
560.47	333
560.683	354
560.895	331
561.107	326
561.32	328
561.532	318
561.744	350
561.956	326
562.168	320
562.381	325
562.593	314
562.805	346
563.017	323
563.229	331
563.441	338
563.653	344
563.865	314
564.077	339
564.289	337
564.501	342
564.713	350
564.925	337
565.137	350
565.349	333
565.561	361
565.773	341
565.985	344
566.197	366
566.408	362
566.62	355
566.832	378
567.044	373
567.255	381
567.467	363
567.679	386
567.891	388
568.102	382
568.314	376
568.526	381
568.737	350
568.949	344
569.161	355
569.372	350
569.584	319
569.795	333
570.007	342
570.218	402
570.43	361
570.641	314
570.853	321
571.064	305
571.276	306
571.487	322
571.698	315
571.91	317
572.121	309
572.333	302
572.544	294
572.755	301
572.966	310
573.178	284
573.389	283
573.6	315
573.811	289
574.023	279
574.234	274
574.445	274
574.656	288
574.867	281
575.078	273
575.289	291
575.501	300
575.712	278
575.923	296
576.134	258
576.345	289
576.556	289
576.767	270
576.978	279
577.188	289
577.399	297
577.61	288
577.821	295
578.032	280
578.243	336
578.454	572
578.665	431
578.875	283
579.086	266
579.297	282
579.508	274
579.718	257
579.929	267
580.14	277
580.35	272
580.561	252
580.772	269
580.982	248
581.193	263
581.403	277
581.614	274
581.825	266
582.035	281
582.246	244
582.456	271
582.667	260
582.877	266
583.087	270
583.298	262
583.508	267
583.719	249
583.929	257
584.139	253
584.35	276
584.56	248
584.77	266
584.981	265
585.191	252
585.401	247
585.611	253
585.821	266
586.032	236
586.242	256
586.452	245
586.662	248
586.872	268
587.082	252
587.292	252
587.502	249
587.713	253
587.923	244
588.133	257
588.343	252
588.553	257
588.762	245
588.972	256
589.182	313
589.392	298
589.602	263
589.812	302
590.022	268
590.232	254
590.441	264
590.651	260
590.861	240
591.071	255
591.281	241
591.49	252
591.7	266
591.91	254
592.119	253
592.329	249
592.539	255
592.748	256
592.958	248
593.167	260
593.377	253
593.587	252
593.796	241
594.006	243
594.215	262
594.424	259
594.634	247
594.843	247
595.053	272
595.262	265
595.472	244
595.681	244
595.89	236
596.1	246
596.309	226
596.518	255
596.727	248
596.937	237
597.146	242
597.355	235
597.564	229
597.774	224
597.983	229
598.192	222
598.401	246
598.61	219
598.819	233
599.028	233
599.237	217
599.446	213
599.655	215
599.864	223
600.073	220
600.282	229
600.491	236
600.7	215
600.909	213
601.118	225
601.327	216
601.536	196
601.745	221
601.953	232
602.162	200
602.371	218
602.58	207
602.789	223
602.997	197
603.206	221
603.415	237
603.623	223
603.832	207
604.041	218
604.249	202
604.458	223
604.666	214
604.875	221
605.084	219
605.292	214
605.501	201
605.709	220
605.918	210
606.126	210
606.334	198
606.543	215
606.751	205
606.96	210
607.168	209
607.376	218
607.585	207
607.793	203
608.001	206
608.21	215
608.418	202
608.626	212
608.834	207
609.043	204
609.251	205
609.459	205
609.667	223
609.875	208
610.083	220
610.291	217
610.499	198
610.707	198
610.916	215
611.124	211
611.332	181
611.54	205
611.748	190
611.955	205
612.163	209
612.371	219
612.579	213
612.787	209
612.995	217
613.203	202
613.411	209
613.618	215
613.826	209
614.034	211
614.242	213
614.449	202
614.657	193
614.865	199
615.072	201
615.28	199
615.488	208
615.695	199
615.903	209
616.111	197
616.318	207
616.526	216
616.733	200
616.941	223
617.148	207
617.356	208
617.563	210
617.771	190
617.978	192
618.185	189
618.393	222
618.6	191
618.807	190
619.015	205
619.222	193
619.429	189
619.637	189
619.844	198
620.051	190
620.258	191
620.466	204
620.673	204
620.88	183
621.087	207
621.294	200
621.501	213
621.708	194
621.915	195
622.122	195
622.329	190
622.536	183
622.743	194
622.95	192
623.157	182
623.364	193
623.571	198
623.778	188
623.985	200
624.192	185
624.399	182
624.606	176
624.812	184
625.019	175
625.226	196
625.433	188
625.639	183
625.846	176
626.053	180
626.259	186
626.466	201
626.673	182
626.879	182
627.086	195
627.293	169
627.499	184
627.706	166
627.912	188
628.119	191
628.325	195
628.532	161
628.738	178
628.945	192
629.151	177
629.357	173
629.564	193
629.77	169
629.976	172
630.183	155
630.389	168
630.595	159
630.802	172
631.008	164
631.214	162
631.42	182
631.627	188
631.833	176
632.039	172
632.245	168
632.451	160
632.657	156
632.863	155
633.069	168
633.275	174
633.481	165
633.688	183
633.893	170
634.099	167
634.305	172
634.511	173
634.717	154
634.923	171
635.129	165
635.335	168
635.541	177
635.747	160
635.952	164
636.158	171
636.364	157
636.57	179
636.775	169
636.981	161
637.187	161
637.392	170
637.598	170
637.804	167
638.009	159
638.215	167
638.421	164
638.626	164
638.832	146
639.037	146
639.243	152
639.448	166
639.654	165
639.859	145
640.065	158
640.27	161
640.475	147
640.681	152
640.886	159
641.091	170
641.297	158
641.502	134
641.707	136
641.913	166
642.118	155
642.323	144
642.528	160
642.733	164
642.939	155
643.144	146
643.349	168
643.554	160
643.759	153
643.964	152
644.169	160
644.374	161
644.579	155
644.784	151
644.989	155
645.194	138
645.399	151
645.604	142
645.809	157
646.014	150
646.219	151
646.423	157
646.628	137
646.833	150
647.038	147
647.243	155
647.447	157
647.652	146
647.857	136
648.062	156
648.266	143
648.471	150
648.676	163
648.88	147
649.085	162
649.289	153
649.494	148
649.698	160
649.903	175
650.107	149
650.312	143
650.516	152
650.721	148
650.925	161
651.13	142
651.334	142
651.539	135
651.743	122
651.947	136
652.152	137
652.356	137
652.56	141
652.764	129
652.969	126
653.173	133
653.377	133
653.581	133
653.785	129
653.99	127
654.194	121
654.398	133
654.602	127
654.806	124
655.01	144
655.214	136
655.418	141
655.622	127
655.826	131
656.03	146
656.234	110
656.438	127
656.642	138
656.846	129
657.049	110
657.253	121
657.457	132
657.661	119
657.865	125
658.068	112
658.272	122
658.476	116
658.68	103
658.883	103
659.087	106
659.291	96
659.494	102
659.698	116
659.901	119
660.105	87
660.309	90
660.512	94
660.716	95
660.919	97
661.123	100
661.326	92
661.53	83
661.733	95
661.936	85
662.14	98
662.343	94
662.546	93
662.75	77
662.953	69
663.156	86
663.36	88
663.563	94
663.766	85
663.969	79
664.173	91
664.376	89
664.579	84
664.782	86
664.985	85
665.188	81
665.391	82
665.594	69
665.797	91
666	83
666.203	71
666.406	83
666.609	82
666.812	81
667.015	85
667.218	64
667.421	87
667.624	90
667.827	81
668.03	82
668.232	79
668.435	70
668.638	69
668.841	88
669.043	90
669.246	86
669.449	93
669.651	79
669.854	90
670.057	86
670.259	89
670.462	95
670.665	94
670.867	89
671.07	96
671.272	91
671.475	87
671.677	83
671.88	79
672.082	82
672.284	90
672.487	94
672.689	84
672.892	91
