Data from 1966.PennyLincolnUp.Lamp.En5.5.200Scan.071719.P1.Scan2.head_HRD10591_14-16-27-029.txt Node
Date: Thu Jul 18 14:16:27 EDT 2019
User: cochatt
Spectrometer: HR+D1059
Trigger mode: 1
Integration Time (sec): 1.000000E-1
Scans to average: 1
Electric dark correction enabled: true
Nonlinearity correction enabled: false
Boxcar width: 0
XAxis mode: Wavelengths
Number of Pixels in Spectrum: 2048
>>>>>Begin Spectral Data<<<<<
223.165	-15
223.4	-15
223.635	-15
223.869	-12
224.104	-8
224.338	-10
224.573	-8
224.808	-19
225.042	-7
225.277	-18
225.511	11
225.746	8
225.98	-1
226.215	-2
226.449	13
226.683	27
226.918	22
227.152	19
227.387	35
227.621	31
227.856	35
228.09	38
228.324	57
228.559	53
228.793	70
229.027	80
229.262	99
229.496	96
229.73	125
229.964	139
230.199	124
230.433	108
230.667	89
230.901	102
231.136	114
231.37	101
231.604	106
231.838	116
232.072	96
232.306	124
232.541	107
232.775	114
233.009	114
233.243	118
233.477	107
233.711	114
233.945	135
234.179	108
234.413	112
234.647	111
234.881	109
235.115	110
235.349	121
235.583	115
235.817	108
236.051	119
236.285	116
236.519	125
236.753	123
236.987	148
237.221	178
237.455	213
237.689	175
237.922	126
238.156	118
238.39	118
238.624	126
238.858	112
239.091	123
239.325	122
239.559	124
239.793	119
240.027	131
240.26	134
240.494	135
240.728	147
240.961	139
241.195	136
241.429	133
241.662	125
241.896	132
242.13	133
242.363	127
242.597	108
242.83	130
243.064	147
243.298	127
243.531	137
243.765	128
243.998	135
244.232	138
244.465	145
244.699	150
244.932	143
245.166	134
245.399	146
245.633	129
245.866	137
246.099	142
246.333	141
246.566	152
246.8	156
247.033	143
247.266	134
247.5	150
247.733	144
247.966	171
248.2	164
248.433	165
248.666	163
248.899	175
249.133	176
249.366	195
249.599	182
249.832	164
250.066	178
250.299	180
250.532	180
250.765	182
250.998	202
251.231	213
251.465	200
251.698	190
251.931	178
252.164	187
252.397	179
252.63	194
252.863	188
253.096	200
253.329	210
253.562	206
253.795	205
254.028	204
254.261	195
254.494	199
254.727	241
254.96	229
255.193	229
255.426	227
255.659	214
255.892	220
256.124	204
256.357	216
256.59	205
256.823	200
257.056	187
257.289	206
257.521	202
257.754	207
257.987	205
258.22	204
258.452	187
258.685	193
258.918	183
259.151	195
259.383	199
259.616	211
259.849	202
260.081	221
260.314	226
260.547	229
260.779	217
261.012	216
261.244	211
261.477	202
261.71	214
261.942	210
262.175	227
262.407	204
262.64	206
262.872	207
263.105	197
263.337	202
263.57	214
263.802	181
264.035	212
264.267	198
264.499	200
264.732	218
264.964	215
265.197	188
265.429	192
265.661	226
265.894	205
266.126	201
266.358	192
266.591	208
266.823	207
267.055	219
267.287	209
267.52	188
267.752	207
267.984	229
268.216	225
268.448	219
268.681	217
268.913	228
269.145	235
269.377	241
269.609	232
269.841	246
270.073	238
270.306	251
270.538	292
270.77	291
271.002	250
271.234	276
271.466	270
271.698	288
271.93	293
272.162	299
272.394	305
272.626	268
272.858	243
273.09	249
273.322	238
273.553	253
273.785	275
274.017	251
274.249	278
274.481	235
274.713	242
274.945	258
275.176	236
275.408	251
275.64	263
275.872	243
276.104	261
276.335	244
276.567	246
276.799	262
277.031	257
277.262	286
277.494	276
277.726	263
277.957	278
278.189	253
278.421	267
278.652	249
278.884	264
279.115	263
279.347	271
279.579	271
279.81	282
280.042	282
280.273	276
280.505	266
280.736	269
280.968	265
281.199	244
281.431	242
281.662	253
281.894	247
282.125	269
282.356	267
282.588	284
282.819	297
283.051	284
283.282	272
283.513	269
283.745	238
283.976	254
284.207	264
284.439	263
284.67	251
284.901	240
285.132	271
285.364	275
285.595	274
285.826	275
286.057	270
286.288	268
286.52	247
286.751	271
286.982	258
287.213	276
287.444	267
287.675	294
287.906	267
288.138	279
288.369	290
288.6	294
288.831	280
289.062	278
289.293	275
289.524	268
289.755	262
289.986	277
290.217	269
290.448	282
290.679	284
290.91	277
291.141	285
291.371	266
291.602	283
291.833	286
292.064	287
292.295	273
292.526	271
292.757	290
292.987	283
293.218	289
293.449	287
293.68	267
293.91	269
294.141	284
294.372	264
294.603	294
294.833	275
295.064	282
295.295	297
295.525	281
295.756	274
295.987	314
296.217	298
296.448	313
296.679	280
296.909	280
297.14	283
297.37	290
297.601	288
297.831	298
298.062	294
298.292	286
298.523	302
298.753	291
298.984	295
299.214	290
299.445	290
299.675	309
299.905	306
300.136	307
300.366	295
300.597	303
300.827	333
301.057	316
301.288	316
301.518	326
301.748	328
301.979	312
302.209	306
302.439	295
302.669	331
302.9	326
303.13	316
303.36	314
303.59	315
303.82	295
304.051	322
304.281	330
304.511	318
304.741	295
304.971	310
305.201	306
305.431	313
305.661	312
305.891	342
306.121	328
306.352	342
306.582	320
306.812	330
307.042	331
307.272	322
307.502	320
307.731	319
307.961	316
308.191	335
308.421	328
308.651	332
308.881	333
309.111	317
309.341	334
309.571	349
309.8	358
310.03	347
310.26	357
310.49	332
310.72	359
310.949	384
311.179	370
311.409	367
311.639	353
311.868	375
312.098	363
312.328	376
312.557	370
312.787	379
313.017	379
313.246	363
313.476	351
313.706	375
313.935	369
314.165	334
314.394	349
314.624	377
314.853	379
315.083	374
315.312	371
315.542	361
315.771	382
316.001	398
316.23	396
316.46	366
316.689	388
316.919	368
317.148	382
317.377	386
317.607	388
317.836	399
318.065	421
318.295	437
318.524	408
318.753	391
318.983	390
319.212	360
319.441	390
319.67	382
319.9	364
320.129	364
320.358	373
320.587	372
320.816	374
321.046	375
321.275	396
321.504	391
321.733	363
321.962	365
322.191	409
322.42	418
322.649	401
322.878	426
323.108	426
323.337	458
323.566	456
323.795	514
324.024	543
324.253	627
324.482	921
324.71	1472
324.939	2223
325.168	1856
325.397	896
325.626	586
325.855	512
326.084	482
326.313	462
326.542	471
326.77	519
326.999	601
327.228	816
327.457	1294
327.686	1637
327.914	1058
328.143	676
328.372	586
328.6	562
328.829	517
329.058	523
329.287	526
329.515	527
329.744	465
329.972	472
330.201	478
330.43	528
330.658	556
330.887	571
331.115	568
331.344	478
331.572	479
331.801	476
332.03	457
332.258	456
332.486	429
332.715	454
332.943	420
333.172	423
333.4	452
333.629	449
333.857	448
334.085	471
334.314	471
334.542	480
334.771	501
334.999	473
335.227	454
335.455	450
335.684	445
335.912	463
336.14	410
336.369	430
336.597	454
336.825	448
337.053	451
337.281	432
337.51	428
337.738	435
337.966	429
338.194	437
338.422	451
338.65	417
338.878	444
339.106	431
339.334	404
339.562	404
339.79	410
340.018	416
340.246	420
340.474	419
340.702	423
340.93	415
341.158	436
341.386	424
341.614	422
341.842	407
342.07	413
342.298	424
342.526	406
342.754	408
342.981	409
343.209	422
343.437	419
343.665	432
343.893	422
344.12	452
344.348	452
344.576	431
344.804	443
345.031	426
345.259	453
345.487	439
345.714	404
345.942	411
346.17	443
346.397	428
346.625	420
346.853	420
347.08	403
347.308	418
347.535	419
347.763	421
347.99	418
348.218	422
348.445	432
348.673	404
348.9	411
349.128	415
349.355	399
349.583	404
349.81	419
350.037	395
350.265	390
350.492	404
350.72	405
350.947	405
351.174	403
351.402	441
351.629	440
351.856	414
352.083	434
352.311	420
352.538	423
352.765	436
352.992	428
353.22	412
353.447	409
353.674	414
353.901	421
354.128	403
354.355	386
354.583	399
354.81	388
355.037	403
355.264	377
355.491	386
355.718	388
355.945	396
356.172	388
356.399	390
356.626	397
356.853	395
357.08	384
357.307	387
357.534	391
357.761	399
357.988	394
358.215	398
358.441	411
358.668	396
358.895	429
359.122	386
359.349	405
359.576	418
359.802	412
360.029	433
360.256	464
360.483	445
360.709	410
360.936	437
361.163	414
361.39	424
361.616	396
361.843	415
362.07	412
362.296	422
362.523	422
362.749	411
362.976	415
363.203	412
363.429	413
363.656	414
363.882	404
364.109	407
364.335	407
364.562	408
364.788	422
365.015	410
365.241	400
365.468	418
365.694	434
365.92	415
366.147	399
366.373	408
366.599	404
366.826	398
367.052	395
367.278	400
367.505	403
367.731	404
367.957	418
368.184	405
368.41	416
368.636	422
368.862	418
369.089	422
369.315	409
369.541	406
369.767	398
369.993	423
370.219	418
370.445	409
370.672	419
370.898	415
371.124	410
371.35	418
371.576	424
371.802	424
372.028	415
372.254	401
372.48	409
372.706	428
372.932	426
373.158	429
373.384	440
373.61	424
373.835	457
374.061	456
374.287	431
374.513	431
374.739	427
374.965	437
375.191	444
375.416	435
375.642	426
375.868	419
376.094	428
376.319	429
376.545	421
376.771	420
376.997	410
377.222	439
377.448	428
377.674	436
377.899	419
378.125	416
378.35	434
378.576	413
378.802	396
379.027	396
379.253	419
379.478	421
379.704	437
379.929	414
380.155	404
380.38	420
380.606	419
380.831	412
381.057	446
381.282	430
381.507	426
381.733	431
381.958	436
382.184	436
382.409	453
382.634	441
382.86	459
383.085	438
383.31	435
383.535	454
383.761	444
383.986	446
384.211	470
384.436	462
384.662	475
384.887	480
385.112	451
385.337	476
385.562	468
385.787	469
386.013	470
386.238	505
386.463	489
386.688	510
386.913	488
387.138	489
387.363	496
387.588	476
387.813	477
388.038	496
388.263	489
388.488	477
388.713	460
388.938	489
389.163	491
389.387	470
389.612	444
389.837	468
390.062	468
390.287	459
390.512	463
390.736	477
390.961	481
391.186	476
391.411	456
391.636	499
391.86	496
392.085	516
392.31	517
392.534	524
392.759	528
392.984	584
393.208	773
393.433	1139
393.658	1303
393.882	747
394.107	568
394.331	514
394.556	514
394.78	502
395.005	487
395.229	493
395.454	523
395.678	500
395.903	526
396.127	551
396.352	567
396.576	580
396.801	758
397.025	976
397.249	796
397.474	586
397.698	496
397.922	532
398.147	545
398.371	546
398.595	527
398.82	523
399.044	554
399.268	568
399.492	595
399.717	644
399.941	674
400.165	671
400.389	686
400.613	633
400.837	607
401.062	572
401.286	566
401.51	530
401.734	534
401.958	528
402.182	545
402.406	564
402.63	548
402.854	557
403.078	555
403.302	563
403.526	568
403.75	549
403.974	549
404.198	548
404.422	555
404.645	566
404.869	592
405.093	596
405.317	626
405.541	650
405.765	621
405.988	580
406.212	604
406.436	628
406.66	646
406.883	618
407.107	626
407.331	690
407.555	742
407.778	734
408.002	683
408.226	630
408.449	631
408.673	627
408.896	654
409.12	690
409.344	634
409.567	611
409.791	574
410.014	571
410.238	577
410.461	583
410.685	586
410.908	578
411.132	607
411.355	626
411.578	615
411.802	560
412.025	557
412.249	575
412.472	578
412.695	613
412.919	611
413.142	573
413.365	546
413.589	546
413.812	556
414.035	555
414.258	543
414.482	543
414.705	540
414.928	523
415.151	546
415.374	541
415.597	542
415.821	516
416.044	555
416.267	542
416.49	538
416.713	542
416.936	537
417.159	515
417.382	530
417.605	542
417.828	549
418.051	566
418.274	539
418.497	530
418.72	537
418.943	542
419.166	542
419.389	574
419.611	570
419.834	597
420.057	560
420.28	583
420.503	573
420.726	546
420.948	542
421.171	589
421.394	643
421.617	579
421.839	543
422.062	570
422.285	578
422.507	637
422.73	754
422.953	784
423.175	621
423.398	574
423.621	575
423.843	579
424.066	605
424.288	578
424.511	610
424.733	673
424.956	734
425.178	703
425.401	714
425.623	722
425.846	604
426.068	600
426.291	588
426.513	579
426.735	583
426.958	632
427.18	710
427.402	859
427.625	942
427.847	836
428.069	718
428.292	628
428.514	592
428.736	555
428.958	566
429.181	572
429.403	547
429.625	552
429.847	583
430.069	635
430.292	666
430.514	580
430.736	573
430.958	534
431.18	546
431.402	547
431.624	513
431.846	529
432.068	543
432.29	554
432.512	535
432.734	522
432.956	550
433.178	545
433.4	558
433.622	533
433.844	522
434.066	518
434.287	537
434.509	562
434.731	540
434.953	554
435.175	570
435.397	587
435.618	598
435.84	613
436.062	732
436.284	806
436.505	679
436.727	619
436.949	571
437.17	550
437.392	549
437.614	571
437.835	584
438.057	681
438.278	782
438.5	788
438.721	868
438.943	851
439.165	663
439.386	619
439.608	605
439.829	580
440.05	625
440.272	692
440.493	634
440.715	589
440.936	571
441.158	579
441.379	560
441.6	568
441.822	580
442.043	630
442.264	694
442.486	740
442.707	641
442.928	623
443.149	620
443.371	628
443.592	641
443.813	779
444.034	833
444.255	693
444.476	618
444.698	617
444.919	633
445.14	695
445.361	656
445.582	671
445.803	716
446.024	824
446.245	834
446.466	739
446.687	632
446.908	603
447.129	558
447.35	546
447.571	544
447.792	544
448.013	554
448.234	569
448.455	606
448.675	726
448.896	835
449.117	720
449.338	687
449.559	784
449.779	879
450	696
450.221	605
450.442	546
450.662	536
450.883	547
451.104	554
451.324	530
451.545	518
451.766	504
451.986	496
452.207	476
452.428	482
452.648	487
452.869	493
453.089	506
453.31	528
453.53	512
453.751	489
453.971	493
454.192	509
454.412	518
454.633	507
454.853	503
455.073	496
455.294	503
455.514	580
455.734	549
455.955	502
456.175	469
456.395	462
456.616	462
456.836	469
457.056	480
457.276	449
457.497	482
457.717	464
457.937	500
458.157	474
458.377	500
458.598	506
458.818	551
459.038	630
459.258	649
459.478	586
459.698	521
459.918	512
460.138	545
460.358	568
460.578	548
460.798	553
461.018	569
461.238	542
461.458	555
461.678	561
461.898	558
462.118	551
462.338	571
462.558	548
462.777	577
462.997	619
463.217	609
463.437	601
463.657	604
463.876	597
464.096	595
464.316	586
464.536	607
464.755	598
464.975	599
465.195	610
465.414	664
465.634	616
465.854	556
466.073	563
466.293	547
466.512	527
466.732	530
466.951	519
467.171	527
467.391	544
467.61	511
467.829	533
468.049	541
468.268	523
468.488	507
468.707	511
468.927	501
469.146	477
469.365	503
469.585	488
469.804	526
470.023	512
470.243	498
470.462	524
470.681	535
470.901	528
471.12	517
471.339	507
471.558	528
471.777	518
471.997	546
472.216	519
472.435	578
472.654	558
472.873	530
473.092	504
473.311	537
473.53	518
473.749	517
473.968	572
474.187	650
474.406	682
474.625	572
474.844	525
475.063	525
475.282	529
475.501	521
475.72	546
475.939	522
476.158	521
476.377	551
476.596	541
476.814	572
477.033	548
477.252	560
477.471	538
477.69	585
477.908	589
478.127	579
478.346	583
478.564	589
478.783	594
479.002	598
479.22	586
479.439	627
479.658	630
479.876	637
480.095	648
480.313	669
480.532	657
480.751	635
480.969	635
481.188	690
481.406	762
481.624	656
481.843	660
482.061	661
482.28	654
482.498	646
482.717	633
482.935	616
483.153	606
483.372	615
483.59	619
483.808	627
484.027	622
484.245	609
484.463	623
484.681	606
484.9	636
485.118	643
485.336	634
485.554	635
485.772	639
485.99	642
486.209	654
486.427	645
486.645	663
486.863	686
487.081	670
487.299	685
487.517	683
487.735	667
487.953	680
488.171	678
488.389	662
488.607	658
488.825	641
489.043	680
489.261	657
489.479	659
489.696	677
489.914	683
490.132	660
490.35	681
490.568	671
490.786	676
491.003	682
491.221	702
491.439	704
491.657	733
491.874	708
492.092	746
492.31	744
492.527	747
492.745	738
492.963	749
493.18	743
493.398	737
493.615	771
493.833	758
494.05	745
494.268	742
494.485	750
494.703	735
494.92	749
495.138	735
495.355	745
495.573	765
495.79	778
496.008	787
496.225	788
496.442	762
496.66	773
496.877	757
497.094	779
497.312	788
497.529	778
497.746	795
497.963	820
498.181	842
498.398	877
498.615	883
498.832	879
499.049	900
499.267	928
499.484	976
499.701	1023
499.918	1048
500.135	1109
500.352	1152
500.569	1157
500.786	1138
501.003	1117
501.22	1124
501.437	1069
501.654	1050
501.871	1010
502.088	991
502.305	913
502.522	894
502.739	901
502.956	868
503.172	843
503.389	811
503.606	811
503.823	816
504.04	811
504.256	775
504.473	771
504.69	777
504.907	781
505.123	754
505.34	757
505.557	772
505.773	749
505.99	751
506.207	743
506.423	730
506.64	699
506.856	712
507.073	710
507.289	696
507.506	703
507.722	734
507.939	727
508.155	710
508.372	701
508.588	687
508.805	680
509.021	682
509.238	715
509.454	684
509.67	683
509.887	668
510.103	683
510.319	704
510.536	780
510.752	1233
510.968	1064
511.184	702
511.401	664
511.617	663
511.833	646
512.049	656
512.265	653
512.481	667
512.698	637
512.914	652
513.13	627
513.346	653
513.562	651
513.778	653
513.994	681
514.21	686
514.426	685
514.642	741
514.858	760
515.074	812
515.29	916
515.506	1266
515.721	1104
515.937	774
516.153	713
516.369	718
516.585	696
516.801	690
517.016	695
517.232	683
517.448	708
517.664	694
517.879	699
518.095	692
518.311	683
518.527	693
518.742	681
518.958	655
519.173	677
519.389	662
519.605	677
519.82	686
520.036	683
520.251	699
520.467	716
520.682	704
520.898	715
521.113	751
521.329	778
521.544	863
521.76	1053
521.975	1646
522.19	1627
522.406	962
522.621	758
522.836	672
523.052	642
523.267	650
523.482	630
523.698	627
523.913	610
524.128	606
524.343	586
524.559	636
524.774	588
524.989	578
525.204	556
525.419	584
525.634	568
525.849	591
526.064	542
526.28	551
526.495	533
526.71	562
526.925	556
527.14	558
527.355	563
527.57	556
527.785	552
527.999	548
528.214	539
528.429	551
528.644	564
528.859	551
529.074	546
529.289	565
529.503	653
529.718	635
529.933	590
530.148	565
530.363	552
530.577	566
530.792	540
531.007	539
531.221	549
531.436	526
531.651	526
531.865	522
532.08	518
532.295	539
532.509	524
532.724	527
532.938	525
533.153	540
533.367	526
533.582	529
533.796	523
534.011	513
534.225	518
534.44	507
534.654	520
534.868	498
535.083	532
535.297	531
535.511	541
535.726	531
535.94	528
536.154	538
536.369	530
536.583	511
536.797	522
537.011	514
537.225	504
537.44	516
537.654	493
537.868	526
538.082	467
538.296	520
538.51	505
538.724	506
538.938	533
539.153	502
539.367	496
539.581	530
539.795	480
540.009	486
540.222	506
540.436	500
540.65	526
540.864	513
541.078	538
541.292	472
541.506	484
541.72	515
541.934	502
542.147	498
542.361	493
542.575	478
542.789	489
543.002	506
543.216	506
543.43	515
543.644	487
543.857	503
544.071	504
544.285	503
544.498	503
544.712	510
544.925	503
545.139	510
545.352	493
545.566	483
545.779	503
545.993	513
546.206	498
546.42	489
546.633	491
546.847	510
547.06	492
547.274	499
547.487	498
547.7	491
547.914	472
548.127	487
548.34	486
548.554	490
548.767	485
548.98	466
549.193	489
549.407	502
549.62	486
549.833	486
550.046	496
550.259	498
550.473	482
550.686	499
550.899	488
551.112	502
551.325	478
551.538	475
551.751	464
551.964	473
552.177	494
552.39	504
552.603	482
552.816	477
553.029	491
553.242	506
553.455	491
553.667	523
553.88	526
554.093	518
554.306	499
554.519	482
554.732	474
554.944	484
555.157	478
555.37	460
555.583	494
555.795	470
556.008	466
556.221	446
556.433	456
556.646	431
556.859	454
557.071	449
557.284	422
557.496	459
557.709	470
557.921	453
558.134	459
558.346	428
558.559	439
558.771	438
558.984	444
559.196	463
559.409	451
559.621	442
559.833	438
560.046	443
560.258	444
560.47	445
560.683	439
560.895	440
561.107	410
561.32	418
561.532	437
561.744	427
561.956	446
562.168	437
562.381	436
562.593	470
562.805	448
563.017	456
563.229	431
563.441	432
563.653	454
563.865	446
564.077	445
564.289	472
564.501	477
564.713	463
564.925	462
565.137	495
565.349	474
565.561	479
565.773	492
565.985	475
566.197	517
566.408	520
566.62	525
566.832	530
567.044	542
567.255	549
567.467	548
567.679	586
567.891	598
568.102	579
568.314	555
568.526	581
568.737	557
568.949	517
569.161	507
569.372	491
569.584	475
569.795	442
570.007	457
570.218	491
570.43	473
570.641	428
570.853	432
571.064	426
571.276	450
571.487	428
571.698	398
571.91	431
572.121	405
572.333	409
572.544	402
572.755	412
572.966	401
573.178	389
573.389	415
573.6	376
573.811	400
574.023	388
574.234	400
574.445	389
574.656	379
574.867	390
575.078	380
575.289	372
575.501	373
575.712	365
575.923	380
576.134	374
576.345	369
576.556	384
576.767	351
576.978	389
577.188	372
577.399	389
577.61	376
577.821	375
578.032	375
578.243	393
578.454	610
578.665	465
578.875	356
579.086	359
579.297	363
579.508	373
579.718	365
579.929	366
580.14	363
580.35	361
580.561	380
580.772	335
580.982	339
581.193	353
581.403	353
581.614	366
581.825	327
582.035	324
582.246	361
582.456	342
582.667	350
582.877	347
583.087	349
583.298	342
583.508	350
583.719	338
583.929	352
584.139	352
584.35	339
584.56	344
584.77	352
584.981	336
585.191	345
585.401	335
585.611	342
585.821	358
586.032	352
586.242	338
586.452	346
586.662	348
586.872	348
587.082	347
587.292	352
587.502	322
587.713	326
587.923	332
588.133	366
588.343	340
588.553	312
588.762	344
588.972	368
589.182	559
589.392	558
589.602	396
589.812	485
590.022	434
590.232	350
590.441	330
590.651	344
590.861	326
591.071	328
591.281	330
591.49	329
591.7	355
591.91	344
592.119	350
592.329	340
592.539	356
592.748	354
592.958	364
593.167	364
593.377	365
593.587	365
593.796	381
594.006	358
594.215	357
594.424	364
594.634	356
594.843	356
595.053	332
595.262	346
595.472	335
595.681	326
595.89	334
596.1	328
596.309	344
596.518	315
596.727	336
596.937	330
597.146	336
597.355	315
597.564	335
597.774	324
597.983	324
598.192	309
598.401	303
598.61	303
598.819	315
599.028	318
599.237	312
599.446	297
599.655	312
599.864	290
600.073	302
600.282	299
600.491	285
600.7	297
600.909	287
601.118	289
601.327	291
601.536	279
601.745	299
601.953	317
602.162	293
602.371	301
602.58	294
602.789	288
602.997	293
603.206	281
603.415	273
603.623	286
603.832	291
604.041	280
604.249	283
604.458	301
604.666	280
604.875	271
605.084	288
605.292	280
605.501	266
605.709	277
605.918	269
606.126	286
606.334	279
606.543	294
606.751	280
606.96	275
607.168	276
607.376	293
607.585	274
607.793	300
608.001	285
608.21	271
608.418	281
608.626	285
608.834	276
609.043	279
609.251	272
609.459	278
609.667	272
609.875	267
610.083	280
610.291	278
610.499	287
610.707	260
610.916	300
611.124	289
611.332	288
611.54	299
611.748	296
611.955	281
612.163	278
612.371	287
612.579	269
612.787	268
612.995	256
613.203	272
613.411	258
613.618	273
613.826	278
614.034	278
614.242	271
614.449	258
614.657	277
614.865	283
615.072	273
615.28	286
615.488	267
615.695	256
615.903	282
616.111	276
616.318	288
616.526	271
616.733	280
616.941	247
617.148	274
617.356	280
617.563	280
617.771	262
617.978	262
618.185	296
618.393	268
618.6	266
618.807	271
619.015	261
619.222	270
619.429	262
619.637	264
619.844	271
620.051	253
620.258	258
620.466	257
620.673	243
620.88	247
621.087	259
621.294	244
621.501	255
621.708	266
621.915	265
622.122	263
622.329	266
622.536	272
622.743	258
622.95	248
623.157	252
623.364	247
623.571	241
623.778	237
623.985	246
624.192	239
624.399	250
624.606	249
624.812	238
625.019	223
625.226	227
625.433	261
625.639	245
625.846	236
626.053	245
626.259	234
626.466	242
626.673	235
626.879	221
627.086	231
627.293	239
627.499	240
627.706	234
627.912	227
628.119	224
628.325	233
628.532	235
628.738	239
628.945	251
629.151	230
629.357	244
629.564	227
629.77	238
629.976	219
630.183	224
630.389	214
630.595	212
630.802	202
631.008	225
631.214	243
631.42	228
631.627	224
631.833	209
632.039	218
632.245	207
632.451	205
632.657	216
632.863	223
633.069	236
633.275	232
633.481	222
633.688	221
633.893	211
634.099	237
634.305	201
634.511	216
634.717	214
634.923	200
635.129	207
635.335	218
635.541	214
635.747	205
635.952	207
636.158	219
636.364	201
636.57	214
636.775	202
636.981	202
637.187	215
637.392	198
637.598	193
637.804	203
638.009	213
638.215	204
638.421	218
638.626	171
638.832	210
639.037	197
639.243	202
639.448	207
639.654	199
639.859	222
640.065	198
640.27	211
640.475	188
640.681	199
640.886	194
641.091	191
641.297	186
641.502	201
641.707	196
641.913	202
642.118	187
642.323	188
642.528	203
642.733	187
642.939	190
643.144	190
643.349	192
643.554	198
643.759	196
643.964	190
644.169	182
644.374	199
644.579	181
644.784	167
644.989	194
645.194	197
645.399	188
645.604	193
645.809	191
646.014	175
646.219	199
646.423	185
646.628	186
646.833	187
647.038	192
647.243	206
647.447	184
647.652	194
647.857	200
648.062	190
648.266	202
648.471	188
648.676	195
648.88	188
649.085	198
649.289	204
649.494	195
649.698	200
649.903	211
650.107	200
650.312	198
650.516	174
650.721	183
650.925	199
651.13	179
651.334	178
651.539	175
651.743	169
651.947	173
652.152	168
652.356	158
652.56	160
652.764	174
652.969	173
653.173	168
653.377	162
653.581	150
653.785	164
653.99	153
654.194	172
654.398	162
654.602	154
654.806	164
655.01	166
655.214	149
655.418	162
655.622	167
655.826	183
656.03	169
656.234	169
656.438	188
656.642	187
656.846	167
657.049	171
657.253	163
657.457	155
657.661	148
657.865	130
658.068	141
658.272	136
658.476	132
658.68	127
658.883	104
659.087	99
659.291	118
659.494	115
659.698	108
659.901	103
660.105	106
660.309	101
660.512	93
660.716	109
660.919	109
661.123	96
661.326	90
661.53	93
661.733	95
661.936	92
662.14	94
662.343	80
662.546	98
662.75	86
662.953	102
663.156	103
663.36	87
663.563	86
663.766	87
663.969	90
664.173	71
664.376	94
664.579	87
664.782	79
664.985	82
665.188	83
665.391	99
665.594	93
665.797	88
666	83
666.203	98
666.406	81
666.609	77
666.812	84
667.015	93
667.218	100
667.421	80
667.624	79
667.827	85
668.03	82
668.232	80
668.435	78
668.638	83
668.841	82
669.043	101
669.246	75
669.449	87
669.651	82
669.854	79
670.057	90
670.259	94
670.462	94
670.665	84
670.867	78
671.07	82
671.272	88
671.475	72
671.677	85
671.88	86
672.082	76
672.284	83
672.487	95
672.689	70
672.892	68
