Data from 1966.PennyLincolnUp.Lamp.En5.5.200Scan.071719.P1.Scan2.head_HRD10591_14-18-56-228.txt Node
Date: Thu Jul 18 14:18:56 EDT 2019
User: cochatt
Spectrometer: HR+D1059
Trigger mode: 1
Integration Time (sec): 1.000000E-1
Scans to average: 1
Electric dark correction enabled: true
Nonlinearity correction enabled: false
Boxcar width: 0
XAxis mode: Wavelengths
Number of Pixels in Spectrum: 2048
>>>>>Begin Spectral Data<<<<<
223.165	-7
223.4	-7
223.635	-7
223.869	-20
224.104	-26
224.338	-10
224.573	-10
224.808	-20
225.042	-5
225.277	-1
225.511	-2
225.746	-3
225.98	5
226.215	28
226.449	6
226.683	21
226.918	10
227.152	34
227.387	21
227.621	42
227.856	47
228.09	38
228.324	44
228.559	39
228.793	57
229.027	116
229.262	117
229.496	121
229.73	145
229.964	172
230.199	127
230.433	120
230.667	127
230.901	123
231.136	121
231.37	115
231.604	121
231.838	110
232.072	117
232.306	99
232.541	118
232.775	111
233.009	111
233.243	118
233.477	123
233.711	110
233.945	117
234.179	108
234.413	111
234.647	122
234.881	100
235.115	109
235.349	113
235.583	135
235.817	123
236.051	133
236.285	129
236.519	125
236.753	140
236.987	155
237.221	176
237.455	240
237.689	192
237.922	141
238.156	148
238.39	143
238.624	137
238.858	132
239.091	134
239.325	139
239.559	119
239.793	131
240.027	155
240.26	148
240.494	165
240.728	161
240.961	152
241.195	136
241.429	155
241.662	139
241.896	160
242.13	133
242.363	145
242.597	147
242.83	141
243.064	128
243.298	153
243.531	151
243.765	145
243.998	137
244.232	145
244.465	149
244.699	147
244.932	164
245.166	135
245.399	153
245.633	143
245.866	141
246.099	161
246.333	153
246.566	155
246.8	153
247.033	163
247.266	158
247.5	165
247.733	155
247.966	186
248.2	175
248.433	163
248.666	179
248.899	217
249.133	222
249.366	227
249.599	203
249.832	195
250.066	194
250.299	207
250.532	203
250.765	224
250.998	232
251.231	235
251.465	217
251.698	216
251.931	212
252.164	211
252.397	215
252.63	209
252.863	213
253.096	230
253.329	250
253.562	241
253.795	233
254.028	221
254.261	222
254.494	254
254.727	266
254.96	288
255.193	291
255.426	259
255.659	240
255.892	223
256.124	237
256.357	233
256.59	230
256.823	221
257.056	225
257.289	224
257.521	222
257.754	219
257.987	224
258.22	233
258.452	222
258.685	217
258.918	216
259.151	207
259.383	221
259.616	233
259.849	230
260.081	247
260.314	279
260.547	279
260.779	267
261.012	255
261.244	229
261.477	239
261.71	235
261.942	243
262.175	228
262.407	212
262.64	243
262.872	229
263.105	215
263.337	226
263.57	223
263.802	224
264.035	245
264.267	232
264.499	222
264.732	230
264.964	246
265.197	226
265.429	218
265.661	230
265.894	211
266.126	219
266.358	232
266.591	237
266.823	240
267.055	241
267.287	243
267.52	234
267.752	224
267.984	247
268.216	247
268.448	240
268.681	251
268.913	264
269.145	279
269.377	301
269.609	281
269.841	298
270.073	284
270.306	305
270.538	330
270.77	336
271.002	323
271.234	314
271.466	315
271.698	327
271.93	345
272.162	337
272.394	329
272.626	304
272.858	319
273.09	292
273.322	287
273.553	277
273.785	279
274.017	280
274.249	276
274.481	263
274.713	274
274.945	275
275.176	266
275.408	279
275.64	292
275.872	272
276.104	285
276.335	288
276.567	261
276.799	318
277.031	315
277.262	343
277.494	320
277.726	313
277.957	295
278.189	304
278.421	303
278.652	279
278.884	288
279.115	273
279.347	293
279.579	296
279.81	283
280.042	269
280.273	289
280.505	283
280.736	294
280.968	295
281.199	275
281.431	282
281.662	274
281.894	279
282.125	287
282.356	318
282.588	335
282.819	328
283.051	295
283.282	267
283.513	286
283.745	311
283.976	298
284.207	301
284.439	287
284.67	300
284.901	286
285.132	297
285.364	287
285.595	295
285.826	307
286.057	295
286.288	308
286.52	302
286.751	300
286.982	294
287.213	312
287.444	289
287.675	303
287.906	314
288.138	342
288.369	321
288.6	336
288.831	314
289.062	310
289.293	293
289.524	320
289.755	312
289.986	330
290.217	291
290.448	290
290.679	307
290.91	302
291.141	316
291.371	308
291.602	320
291.833	297
292.064	296
292.295	307
292.526	303
292.757	307
292.987	301
293.218	319
293.449	335
293.68	303
293.91	309
294.141	291
294.372	307
294.603	295
294.833	325
295.064	314
295.295	312
295.525	313
295.756	307
295.987	326
296.217	327
296.448	356
296.679	323
296.909	315
297.14	311
297.37	309
297.601	324
297.831	318
298.062	338
298.292	321
298.523	321
298.753	332
298.984	344
299.214	333
299.445	322
299.675	345
299.905	315
300.136	340
300.366	347
300.597	335
300.827	343
301.057	333
301.288	352
301.518	358
301.748	350
301.979	358
302.209	342
302.439	350
302.669	346
302.9	343
303.13	347
303.36	350
303.59	343
303.82	376
304.051	352
304.281	360
304.511	350
304.741	350
304.971	352
305.201	338
305.431	361
305.661	358
305.891	344
306.121	371
306.352	359
306.582	352
306.812	344
307.042	345
307.272	349
307.502	358
307.731	360
307.961	365
308.191	359
308.421	343
308.651	333
308.881	351
309.111	359
309.341	350
309.571	383
309.8	362
310.03	399
310.26	388
310.49	383
310.72	381
310.949	408
311.179	413
311.409	387
311.639	394
311.868	389
312.098	385
312.328	416
312.557	413
312.787	408
313.017	442
313.246	422
313.476	396
313.706	416
313.935	407
314.165	403
314.394	428
314.624	407
314.853	409
315.083	401
315.312	393
315.542	409
315.771	398
316.001	376
316.23	405
316.46	393
316.689	411
316.919	409
317.148	401
317.377	410
317.607	419
317.836	398
318.065	399
318.295	397
318.524	414
318.753	397
318.983	405
319.212	394
319.441	419
319.67	402
319.9	415
320.129	424
320.358	399
320.587	404
320.816	424
321.046	420
321.275	428
321.504	427
321.733	424
321.962	447
322.191	430
322.42	463
322.649	460
322.878	488
323.108	488
323.337	519
323.566	511
323.795	545
324.024	585
324.253	708
324.482	995
324.71	1585
324.939	2385
325.168	2037
325.397	1020
325.626	699
325.855	582
326.084	519
326.313	521
326.542	510
326.77	581
326.999	661
327.228	937
327.457	1408
327.686	1737
327.914	1123
328.143	755
328.372	649
328.6	615
328.829	616
329.058	610
329.287	608
329.515	603
329.744	561
329.972	535
330.201	559
330.43	647
330.658	629
330.887	668
331.115	640
331.344	584
331.572	540
331.801	519
332.03	508
332.258	496
332.486	488
332.715	482
332.943	475
333.172	505
333.4	490
333.629	511
333.857	537
334.085	517
334.314	564
334.542	590
334.771	635
334.999	549
335.227	515
335.455	524
335.684	475
335.912	498
336.14	479
336.369	504
336.597	501
336.825	476
337.053	488
337.281	469
337.51	471
337.738	483
337.966	457
338.194	470
338.422	487
338.65	484
338.878	477
339.106	464
339.334	475
339.562	459
339.79	459
340.018	479
340.246	471
340.474	495
340.702	495
340.93	475
341.158	471
341.386	471
341.614	454
341.842	484
342.07	470
342.298	442
342.526	443
342.754	452
342.981	470
343.209	445
343.437	455
343.665	452
343.893	475
344.12	481
344.348	464
344.576	478
344.804	486
345.031	481
345.259	485
345.487	497
345.714	495
345.942	484
346.17	453
346.397	445
346.625	443
346.853	455
347.08	449
347.308	442
347.535	451
347.763	478
347.99	468
348.218	447
348.445	493
348.673	462
348.9	446
349.128	481
349.355	447
349.583	453
349.81	438
350.037	453
350.265	431
350.492	452
350.72	438
350.947	447
351.174	457
351.402	494
351.629	489
351.856	478
352.083	457
352.311	462
352.538	460
352.765	449
352.992	476
353.22	458
353.447	465
353.674	447
353.901	437
354.128	432
354.355	439
354.583	453
354.81	429
355.037	437
355.264	436
355.491	431
355.718	416
355.945	422
356.172	399
356.399	443
356.626	425
356.853	415
357.08	428
357.307	418
357.534	444
357.761	432
357.988	437
358.215	411
358.441	428
358.668	448
358.895	433
359.122	430
359.349	438
359.576	447
359.802	467
360.029	508
360.256	503
360.483	513
360.709	476
360.936	456
361.163	471
361.39	449
361.616	465
361.843	452
362.07	461
362.296	455
362.523	452
362.749	468
362.976	482
363.203	454
363.429	471
363.656	445
363.882	430
364.109	459
364.335	443
364.562	444
364.788	448
365.015	443
365.241	446
365.468	455
365.694	437
365.92	457
366.147	433
366.373	452
366.599	459
366.826	451
367.052	440
367.278	446
367.505	421
367.731	445
367.957	469
368.184	428
368.41	439
368.636	438
368.862	475
369.089	466
369.315	441
369.541	443
369.767	415
369.993	448
370.219	457
370.445	439
370.672	465
370.898	450
371.124	434
371.35	449
371.576	452
371.802	450
372.028	447
372.254	419
372.48	445
372.706	449
372.932	446
373.158	451
373.384	463
373.61	446
373.835	464
374.061	457
374.287	457
374.513	464
374.739	471
374.965	465
375.191	464
375.416	458
375.642	452
375.868	444
376.094	463
376.319	450
376.545	451
376.771	448
376.997	455
377.222	461
377.448	449
377.674	428
377.899	445
378.125	431
378.35	445
378.576	451
378.802	467
379.027	438
379.253	448
379.478	445
379.704	455
379.929	444
380.155	443
380.38	466
380.606	440
380.831	445
381.057	481
381.282	454
381.507	461
381.733	462
381.958	462
382.184	461
382.409	463
382.634	456
382.86	444
383.085	474
383.31	461
383.535	469
383.761	470
383.986	489
384.211	488
384.436	483
384.662	496
384.887	517
385.112	478
385.337	506
385.562	497
385.787	499
386.013	519
386.238	480
386.463	490
386.688	503
386.913	489
387.138	499
387.363	482
387.588	493
387.813	486
388.038	501
388.263	495
388.488	499
388.713	509
388.938	495
389.163	507
389.387	514
389.612	494
389.837	515
390.062	508
390.287	480
390.512	476
390.736	487
390.961	500
391.186	517
391.411	512
391.636	536
391.86	504
392.085	536
392.31	532
392.534	540
392.759	528
392.984	481
393.208	509
393.433	528
393.658	533
393.882	508
394.107	521
394.331	545
394.556	523
394.78	507
395.005	504
395.229	522
395.454	547
395.678	532
395.903	520
396.127	560
396.352	555
396.576	552
396.801	535
397.025	541
397.249	548
397.474	539
397.698	541
397.922	580
398.147	595
398.371	590
398.595	567
398.82	584
399.044	590
399.268	616
399.492	620
399.717	675
399.941	699
400.165	762
400.389	748
400.613	659
400.837	647
401.062	634
401.286	602
401.51	599
401.734	612
401.958	603
402.182	595
402.406	609
402.63	589
402.854	605
403.078	601
403.302	616
403.526	617
403.75	608
403.974	637
404.198	610
404.422	626
404.645	620
404.869	647
405.093	637
405.317	711
405.541	769
405.765	689
405.988	640
406.212	621
406.436	667
406.66	710
406.883	677
407.107	704
407.331	723
407.555	809
407.778	813
408.002	746
408.226	716
408.449	688
408.673	687
408.896	699
409.12	768
409.344	716
409.567	645
409.791	634
410.014	604
410.238	608
410.461	615
410.685	639
410.908	643
411.132	678
411.355	717
411.578	671
411.802	620
412.025	629
412.249	635
412.472	623
412.695	697
412.919	700
413.142	635
413.365	604
413.589	595
413.812	579
414.035	601
414.258	583
414.482	579
414.705	594
414.928	587
415.151	586
415.374	570
415.597	582
415.821	571
416.044	560
416.267	599
416.49	585
416.713	577
416.936	577
417.159	574
417.382	576
417.605	575
417.828	589
418.051	585
418.274	609
418.497	598
418.72	591
418.943	580
419.166	602
419.389	636
419.611	616
419.834	642
420.057	631
420.28	614
420.503	619
420.726	640
420.948	608
421.171	687
421.394	722
421.617	636
421.839	623
422.062	627
422.285	624
422.507	681
422.73	776
422.953	767
423.175	655
423.398	657
423.621	650
423.843	662
424.066	644
424.288	645
424.511	657
424.733	749
424.956	810
425.178	783
425.401	804
425.623	789
425.846	695
426.068	647
426.291	645
426.513	623
426.735	624
426.958	708
427.18	782
427.402	963
427.625	1047
427.847	909
428.069	777
428.292	688
428.514	650
428.736	621
428.958	624
429.181	588
429.403	601
429.625	600
429.847	638
430.069	728
430.292	687
430.514	634
430.736	612
430.958	608
431.18	591
431.402	594
431.624	565
431.846	556
432.068	560
432.29	558
432.512	572
432.734	592
432.956	567
433.178	605
433.4	600
433.622	586
433.844	571
434.066	556
434.287	561
434.509	588
434.731	581
434.953	603
435.175	622
435.397	658
435.618	668
435.84	704
436.062	785
436.284	910
436.505	757
436.727	671
436.949	619
437.17	614
437.392	583
437.614	603
437.835	660
438.057	753
438.278	898
438.5	884
438.721	962
438.943	925
439.165	731
439.386	685
439.608	650
439.829	653
440.05	660
440.272	752
440.493	701
440.715	643
440.936	623
441.158	609
441.379	652
441.6	613
441.822	651
442.043	704
442.264	791
442.486	856
442.707	697
442.928	649
443.149	674
443.371	698
443.592	753
443.813	875
444.034	943
444.255	742
444.476	673
444.698	669
444.919	673
445.14	740
445.361	686
445.582	723
445.803	805
446.024	893
446.245	939
446.466	811
446.687	696
446.908	650
447.129	632
447.35	620
447.571	603
447.792	619
448.013	598
448.234	620
448.455	665
448.675	814
448.896	960
449.117	795
449.338	755
449.559	864
449.779	995
450	809
450.221	656
450.442	601
450.662	595
450.883	587
451.104	603
451.324	605
451.545	576
451.766	540
451.986	525
452.207	528
452.428	523
452.648	561
452.869	547
453.089	573
453.31	571
453.53	551
453.751	538
453.971	537
454.192	553
454.412	539
454.633	517
454.853	520
455.073	524
455.294	565
455.514	640
455.734	602
455.955	528
456.175	523
456.395	483
456.616	499
456.836	515
457.056	489
457.276	497
457.497	506
457.717	533
457.937	539
458.157	519
458.377	545
458.598	569
458.818	610
459.038	692
459.258	747
459.478	607
459.698	581
459.918	590
460.138	565
460.358	565
460.578	594
460.798	603
461.018	591
461.238	593
461.458	580
461.678	593
461.898	601
462.118	578
462.338	622
462.558	622
462.777	627
462.997	647
463.217	651
463.437	652
463.657	637
463.876	655
464.096	612
464.316	625
464.536	619
464.755	631
464.975	622
465.195	667
465.414	743
465.634	654
465.854	607
466.073	589
466.293	580
466.512	551
466.732	543
466.951	575
467.171	564
467.391	546
467.61	549
467.829	565
468.049	566
468.268	583
468.488	555
468.707	549
468.927	536
469.146	542
469.365	561
469.585	531
469.804	565
470.023	592
470.243	566
470.462	569
470.681	587
470.901	605
471.12	576
471.339	564
471.558	565
471.777	569
471.997	572
472.216	576
472.435	604
472.654	588
472.873	569
473.092	561
473.311	573
473.53	573
473.749	563
473.968	602
474.187	756
474.406	785
474.625	616
474.844	576
475.063	544
475.282	557
475.501	540
475.72	551
475.939	579
476.158	578
476.377	559
476.596	591
476.814	599
477.033	596
477.252	603
477.471	589
477.69	603
477.908	623
478.127	608
478.346	627
478.564	638
478.783	632
479.002	646
479.22	621
479.439	661
479.658	658
479.876	671
480.095	679
480.313	702
480.532	729
480.751	687
480.969	695
481.188	763
481.406	825
481.624	735
481.843	701
482.061	683
482.28	661
482.498	654
482.717	665
482.935	682
483.153	672
483.372	683
483.59	679
483.808	654
484.027	649
484.245	662
484.463	655
484.681	671
484.9	663
485.118	699
485.336	678
485.554	673
485.772	693
485.99	697
486.209	692
486.427	704
486.645	706
486.863	728
487.081	725
487.299	718
487.517	706
487.735	716
487.953	733
488.171	701
488.389	689
488.607	714
488.825	695
489.043	728
489.261	713
489.479	721
489.696	735
489.914	721
490.132	719
490.35	735
490.568	741
490.786	731
491.003	772
491.221	777
491.439	776
491.657	785
491.874	811
492.092	824
492.31	805
492.527	804
492.745	842
492.963	832
493.18	838
493.398	843
493.615	843
493.833	860
494.05	833
494.268	860
494.485	867
494.703	832
494.92	824
495.138	873
495.355	842
495.573	883
495.79	839
496.008	848
496.225	858
496.442	829
496.66	847
496.877	873
497.094	850
497.312	844
497.529	870
497.746	887
497.963	883
498.181	941
498.398	932
498.615	954
498.832	952
499.049	983
499.267	1007
499.484	1050
499.701	1065
499.918	1124
500.135	1176
500.352	1223
500.569	1240
500.786	1255
501.003	1227
501.22	1187
501.437	1159
501.654	1110
501.871	1123
502.088	1067
502.305	1038
502.522	978
502.739	985
502.956	914
503.172	927
503.389	910
503.606	913
503.823	899
504.04	873
504.256	875
504.473	878
504.69	862
504.907	845
505.123	851
505.34	840
505.557	837
505.773	815
505.99	807
506.207	831
506.423	825
506.64	820
506.856	797
507.073	763
507.289	794
507.506	772
507.722	808
507.939	810
508.155	786
508.372	788
508.588	766
508.805	748
509.021	749
509.238	780
509.454	761
509.67	757
509.887	765
510.103	741
510.319	776
510.536	863
510.752	1337
510.968	1091
511.184	775
511.401	748
511.617	745
511.833	745
512.049	704
512.265	720
512.481	726
512.698	725
512.914	695
513.13	720
513.346	710
513.562	727
513.778	726
513.994	739
514.21	741
514.426	733
514.642	792
514.858	821
515.074	836
515.29	996
515.506	1379
515.721	1165
515.937	863
516.153	806
516.369	789
516.585	767
516.801	789
517.016	753
517.232	753
517.448	760
517.664	756
517.879	757
518.095	760
518.311	766
518.527	729
518.742	741
518.958	721
519.173	709
519.389	711
519.605	713
519.82	700
520.036	752
520.251	753
520.467	762
520.682	777
520.898	791
521.113	832
521.329	848
521.544	887
521.76	1111
521.975	1758
522.19	1745
522.406	1004
522.621	821
522.836	751
523.052	701
523.267	683
523.482	662
523.698	651
523.913	651
524.128	653
524.343	634
524.559	628
524.774	644
524.989	638
525.204	632
525.419	629
525.634	589
525.849	599
526.064	616
526.28	597
526.495	597
526.71	606
526.925	609
527.14	592
527.355	595
527.57	597
527.785	607
527.999	585
528.214	592
528.429	587
528.644	593
528.859	575
529.074	602
529.289	595
529.503	697
529.718	654
529.933	613
530.148	627
530.363	600
530.577	590
530.792	578
531.007	567
531.221	568
531.436	592
531.651	564
531.865	582
532.08	573
532.295	559
532.509	577
532.724	586
532.938	569
533.153	573
533.367	564
533.582	547
533.796	560
534.011	555
534.225	546
534.44	545
534.654	586
534.868	563
535.083	551
535.297	552
535.511	558
535.726	585
535.94	561
536.154	588
536.369	560
536.583	550
536.797	544
537.011	528
537.225	540
537.44	549
537.654	543
537.868	530
538.082	547
538.296	555
538.51	555
538.724	555
538.938	572
539.153	551
539.367	555
539.581	540
539.795	549
540.009	554
540.222	543
540.436	534
540.65	553
540.864	540
541.078	552
541.292	538
541.506	542
541.72	533
541.934	531
542.147	545
542.361	527
542.575	525
542.789	543
543.002	551
543.216	541
543.43	532
543.644	554
543.857	556
544.071	537
544.285	525
544.498	530
544.712	521
544.925	538
545.139	521
545.352	542
545.566	523
545.779	552
545.993	536
546.206	546
546.42	533
546.633	526
546.847	513
547.06	510
547.274	531
547.487	509
547.7	525
547.914	524
548.127	509
548.34	510
548.554	518
548.767	530
548.98	517
549.193	488
549.407	530
549.62	525
549.833	539
550.046	523
550.259	501
550.473	502
550.686	527
550.899	501
551.112	510
551.325	501
551.538	513
551.751	523
551.964	530
552.177	515
552.39	521
552.603	524
552.816	511
553.029	548
553.242	504
553.455	534
553.667	530
553.88	535
554.093	541
554.306	543
554.519	505
554.732	520
554.944	487
555.157	499
555.37	479
555.583	501
555.795	480
556.008	463
556.221	485
556.433	458
556.646	464
556.859	486
557.071	460
557.284	486
557.496	462
557.709	461
557.921	466
558.134	448
558.346	469
558.559	448
558.771	452
558.984	480
559.196	449
559.409	460
559.621	432
559.833	454
560.046	467
560.258	452
560.47	464
560.683	483
560.895	486
561.107	464
561.32	477
561.532	465
561.744	445
561.956	460
562.168	484
562.381	460
562.593	483
562.805	474
563.017	485
563.229	451
563.441	480
563.653	475
563.865	479
564.077	493
564.289	477
564.501	474
564.713	501
564.925	480
565.137	488
565.349	496
565.561	505
565.773	525
565.985	520
566.197	517
566.408	531
566.62	553
566.832	572
567.044	558
567.255	571
567.467	577
567.679	586
567.891	573
568.102	596
568.314	596
568.526	585
568.737	540
568.949	520
569.161	500
569.372	502
569.584	480
569.795	477
570.007	466
570.218	512
570.43	515
570.641	483
570.853	445
571.064	457
571.276	461
571.487	453
571.698	441
571.91	455
572.121	427
572.333	429
572.544	415
572.755	430
572.966	417
573.178	397
573.389	405
573.6	416
573.811	421
574.023	387
574.234	405
574.445	399
574.656	375
574.867	386
575.078	408
575.289	397
575.501	386
575.712	398
575.923	384
576.134	393
576.345	386
576.556	388
576.767	386
576.978	398
577.188	372
577.399	377
577.61	374
577.821	377
578.032	385
578.243	427
578.454	624
578.665	485
578.875	384
579.086	360
579.297	394
579.508	366
579.718	353
579.929	373
580.14	353
580.35	381
580.561	379
580.772	374
580.982	368
581.193	344
581.403	357
581.614	360
581.825	347
582.035	355
582.246	358
582.456	349
582.667	342
582.877	345
583.087	350
583.298	353
583.508	351
583.719	344
583.929	371
584.139	372
584.35	363
584.56	348
584.77	341
584.981	367
585.191	353
585.401	350
585.611	354
585.821	323
586.032	350
586.242	345
586.452	346
586.662	337
586.872	352
587.082	364
587.292	345
587.502	338
587.713	332
587.923	364
588.133	352
588.343	346
588.553	337
588.762	360
588.972	342
589.182	349
589.392	346
589.602	359
589.812	365
590.022	362
590.232	352
590.441	347
590.651	346
590.861	336
591.071	349
591.281	358
591.49	343
591.7	363
591.91	359
592.119	348
592.329	337
592.539	348
592.748	358
592.958	381
593.167	364
593.377	348
593.587	386
593.796	371
594.006	371
594.215	375
594.424	357
594.634	359
594.843	349
595.053	344
595.262	335
595.472	353
595.681	344
595.89	360
596.1	336
596.309	342
596.518	337
596.727	338
596.937	338
597.146	315
597.355	330
597.564	319
597.774	297
597.983	307
598.192	298
598.401	295
598.61	337
598.819	303
599.028	309
599.237	309
599.446	316
599.655	312
599.864	305
600.073	307
600.282	300
600.491	300
600.7	302
600.909	293
601.118	305
601.327	295
601.536	312
601.745	300
601.953	279
602.162	297
602.371	296
602.58	293
602.789	307
602.997	288
603.206	295
603.415	277
603.623	304
603.832	302
604.041	279
604.249	287
604.458	291
604.666	288
604.875	296
605.084	292
605.292	288
605.501	304
605.709	287
605.918	276
606.126	285
606.334	296
606.543	282
606.751	294
606.96	272
607.168	283
607.376	286
607.585	287
607.793	296
608.001	271
608.21	287
608.418	275
608.626	299
608.834	291
609.043	273
609.251	285
609.459	295
609.667	261
609.875	270
610.083	285
610.291	251
610.499	277
610.707	272
610.916	286
611.124	283
611.332	284
611.54	284
611.748	288
611.955	263
612.163	267
612.371	271
612.579	288
612.787	263
612.995	280
613.203	282
613.411	270
613.618	265
613.826	288
614.034	273
614.242	285
614.449	272
614.657	279
614.865	263
615.072	275
615.28	268
615.488	283
615.695	263
615.903	270
616.111	258
616.318	252
616.526	280
616.733	279
616.941	259
617.148	265
617.356	282
617.563	273
617.771	269
617.978	251
618.185	281
618.393	275
618.6	273
618.807	271
619.015	266
619.222	265
619.429	247
619.637	257
619.844	281
620.051	260
620.258	268
620.466	243
620.673	295
620.88	248
621.087	239
621.294	237
621.501	254
621.708	254
621.915	248
622.122	245
622.329	254
622.536	251
622.743	252
622.95	253
623.157	257
623.364	256
623.571	248
623.778	241
623.985	253
624.192	234
624.399	243
624.606	243
624.812	239
625.019	230
625.226	272
625.433	259
625.639	241
625.846	240
626.053	223
626.259	248
626.466	251
626.673	245
626.879	241
627.086	245
627.293	235
627.499	232
627.706	230
627.912	210
628.119	230
628.325	217
628.532	243
628.738	224
628.945	237
629.151	234
629.357	224
629.564	225
629.77	225
629.976	217
630.183	213
630.389	207
630.595	227
630.802	213
631.008	220
631.214	214
631.42	229
631.627	216
631.833	215
632.039	212
632.245	206
632.451	212
632.657	223
632.863	219
633.069	226
633.275	201
633.481	233
633.688	212
633.893	209
634.099	212
634.305	203
634.511	204
634.717	207
634.923	204
635.129	220
635.335	214
635.541	204
635.747	200
635.952	207
636.158	203
636.364	201
636.57	209
636.775	202
636.981	209
637.187	215
637.392	210
637.598	219
637.804	207
638.009	217
638.215	209
638.421	196
638.626	191
638.832	198
639.037	215
639.243	186
639.448	208
639.654	192
639.859	191
640.065	196
640.27	197
640.475	189
640.681	198
640.886	206
641.091	200
641.297	206
641.502	192
641.707	193
641.913	195
642.118	195
642.323	183
642.528	197
642.733	200
642.939	184
643.144	189
643.349	185
643.554	183
643.759	189
643.964	191
644.169	181
644.374	186
644.579	185
644.784	189
644.989	189
645.194	180
645.399	176
645.604	193
645.809	179
646.014	192
646.219	180
646.423	181
646.628	179
646.833	192
647.038	190
647.243	192
647.447	183
647.652	190
647.857	171
648.062	174
648.266	182
648.471	163
648.676	185
648.88	189
649.085	209
649.289	199
649.494	186
649.698	200
649.903	212
650.107	188
650.312	192
650.516	171
650.721	168
650.925	174
651.13	171
651.334	165
651.539	163
651.743	177
651.947	172
652.152	148
652.356	161
652.56	157
652.764	166
652.969	157
653.173	163
653.377	159
653.581	161
653.785	145
653.99	155
654.194	162
654.398	138
654.602	157
654.806	147
655.01	161
655.214	155
655.418	141
655.622	145
655.826	150
656.03	147
656.234	143
656.438	149
656.642	152
656.846	152
657.049	144
657.253	142
657.457	134
657.661	126
657.865	132
658.068	128
658.272	128
658.476	116
658.68	124
658.883	112
659.087	122
659.291	116
659.494	92
659.698	98
659.901	113
660.105	85
660.309	102
660.512	109
660.716	95
660.919	92
661.123	102
661.326	104
661.53	77
661.733	96
661.936	85
662.14	101
662.343	77
662.546	79
662.75	95
662.953	80
663.156	88
663.36	86
663.563	87
663.766	71
663.969	85
664.173	80
664.376	77
664.579	80
664.782	86
664.985	97
665.188	85
665.391	80
665.594	74
665.797	73
666	90
666.203	92
666.406	81
666.609	79
666.812	65
667.015	82
667.218	95
667.421	92
667.624	88
667.827	85
668.03	88
668.232	90
668.435	101
668.638	95
668.841	92
669.043	96
669.246	80
669.449	80
669.651	73
669.854	92
670.057	88
670.259	76
670.462	85
670.665	83
670.867	104
671.07	83
671.272	77
671.475	95
671.677	80
671.88	77
672.082	83
672.284	85
672.487	103
672.689	89
672.892	90
