Data from 1966.PennyLincolnUp.Lamp.En5.5.200Scan.071719.P1.Scan2.head_HRD10591_14-17-32-119.txt Node
Date: Thu Jul 18 14:17:32 EDT 2019
User: cochatt
Spectrometer: HR+D1059
Trigger mode: 1
Integration Time (sec): 1.000000E-1
Scans to average: 1
Electric dark correction enabled: true
Nonlinearity correction enabled: false
Boxcar width: 0
XAxis mode: Wavelengths
Number of Pixels in Spectrum: 2048
>>>>>Begin Spectral Data<<<<<
223.165	-17
223.4	-17
223.635	-17
223.869	-14
224.104	-19
224.338	-15
224.573	-19
224.808	-15
225.042	0
225.277	-7
225.511	-4
225.746	5
225.98	-7
226.215	-4
226.449	21
226.683	31
226.918	27
227.152	37
227.387	27
227.621	40
227.856	44
228.09	41
228.324	44
228.559	54
228.793	66
229.027	87
229.262	100
229.496	103
229.73	116
229.964	140
230.199	127
230.433	96
230.667	100
230.901	122
231.136	114
231.37	101
231.604	108
231.838	121
232.072	112
232.306	105
232.541	115
232.775	116
233.009	117
233.243	119
233.477	108
233.711	129
233.945	118
234.179	103
234.413	112
234.647	114
234.881	118
235.115	124
235.349	122
235.583	124
235.817	100
236.051	129
236.285	126
236.519	136
236.753	109
236.987	132
237.221	166
237.455	237
237.689	173
237.922	155
238.156	119
238.39	132
238.624	124
238.858	121
239.091	112
239.325	124
239.559	115
239.793	118
240.027	125
240.26	141
240.494	139
240.728	152
240.961	134
241.195	148
241.429	142
241.662	124
241.896	132
242.13	137
242.363	137
242.597	144
242.83	123
243.064	137
243.298	139
243.531	122
243.765	144
243.998	124
244.232	147
244.465	138
244.699	149
244.932	128
245.166	160
245.399	149
245.633	156
245.866	150
246.099	138
246.333	140
246.566	147
246.8	147
247.033	149
247.266	161
247.5	151
247.733	161
247.966	173
248.2	165
248.433	170
248.666	155
248.899	165
249.133	196
249.366	183
249.599	189
249.832	169
250.066	168
250.299	182
250.532	164
250.765	187
250.998	216
251.231	221
251.465	213
251.698	187
251.931	189
252.164	192
252.397	192
252.63	182
252.863	195
253.096	198
253.329	214
253.562	228
253.795	205
254.028	206
254.261	206
254.494	209
254.727	252
254.96	273
255.193	258
255.426	256
255.659	217
255.892	215
256.124	219
256.357	228
256.59	217
256.823	209
257.056	207
257.289	213
257.521	199
257.754	206
257.987	213
258.22	217
258.452	208
258.685	184
258.918	204
259.151	224
259.383	200
259.616	196
259.849	212
260.081	232
260.314	241
260.547	249
260.779	242
261.012	222
261.244	235
261.477	225
261.71	200
261.942	200
262.175	222
262.407	210
262.64	187
262.872	216
263.105	201
263.337	216
263.57	218
263.802	201
264.035	195
264.267	201
264.499	217
264.732	218
264.964	222
265.197	204
265.429	210
265.661	214
265.894	223
266.126	207
266.358	218
266.591	202
266.823	214
267.055	212
267.287	229
267.52	206
267.752	222
267.984	203
268.216	220
268.448	217
268.681	226
268.913	246
269.145	235
269.377	256
269.609	252
269.841	236
270.073	264
270.306	278
270.538	294
270.77	277
271.002	304
271.234	278
271.466	264
271.698	293
271.93	315
272.162	297
272.394	294
272.626	305
272.858	268
273.09	266
273.322	248
273.553	266
273.785	256
274.017	237
274.249	274
274.481	247
274.713	248
274.945	253
275.176	251
275.408	249
275.64	249
275.872	277
276.104	254
276.335	248
276.567	264
276.799	274
277.031	277
277.262	292
277.494	294
277.726	292
277.957	277
278.189	289
278.421	269
278.652	261
278.884	276
279.115	256
279.347	255
279.579	259
279.81	252
280.042	268
280.273	268
280.505	268
280.736	267
280.968	255
281.199	262
281.431	248
281.662	258
281.894	263
282.125	275
282.356	288
282.588	290
282.819	284
283.051	276
283.282	266
283.513	260
283.745	289
283.976	264
284.207	278
284.439	280
284.67	266
284.901	280
285.132	270
285.364	255
285.595	276
285.826	276
286.057	266
286.288	267
286.52	282
286.751	270
286.982	263
287.213	261
287.444	262
287.675	276
287.906	297
288.138	281
288.369	298
288.6	291
288.831	285
289.062	284
289.293	276
289.524	281
289.755	278
289.986	277
290.217	284
290.448	278
290.679	275
290.91	270
291.141	281
291.371	278
291.602	266
291.833	280
292.064	284
292.295	290
292.526	280
292.757	286
292.987	267
293.218	287
293.449	284
293.68	290
293.91	298
294.141	276
294.372	288
294.603	273
294.833	288
295.064	296
295.295	293
295.525	288
295.756	301
295.987	274
296.217	312
296.448	310
296.679	302
296.909	315
297.14	284
297.37	294
297.601	286
297.831	301
298.062	291
298.292	284
298.523	299
298.753	293
298.984	309
299.214	288
299.445	294
299.675	291
299.905	299
300.136	298
300.366	285
300.597	291
300.827	338
301.057	310
301.288	288
301.518	330
301.748	321
301.979	318
302.209	305
302.439	311
302.669	321
302.9	322
303.13	326
303.36	326
303.59	324
303.82	327
304.051	320
304.281	318
304.511	320
304.741	319
304.971	314
305.201	296
305.431	305
305.661	316
305.891	319
306.121	304
306.352	329
306.582	322
306.812	323
307.042	338
307.272	319
307.502	318
307.731	315
307.961	312
308.191	337
308.421	330
308.651	340
308.881	344
309.111	313
309.341	340
309.571	329
309.8	355
310.03	355
310.26	340
310.49	362
310.72	373
310.949	354
311.179	378
311.409	364
311.639	366
311.868	369
312.098	374
312.328	372
312.557	375
312.787	381
313.017	393
313.246	370
313.476	356
313.706	364
313.935	364
314.165	363
314.394	374
314.624	388
314.853	377
315.083	368
315.312	367
315.542	350
315.771	344
316.001	364
316.23	361
316.46	356
316.689	368
316.919	379
317.148	364
317.377	368
317.607	364
317.836	374
318.065	357
318.295	379
318.524	361
318.753	368
318.983	378
319.212	364
319.441	377
319.67	374
319.9	385
320.129	380
320.358	374
320.587	360
320.816	368
321.046	393
321.275	372
321.504	388
321.733	387
321.962	385
322.191	384
322.42	418
322.649	399
322.878	457
323.108	425
323.337	424
323.566	455
323.795	480
324.024	528
324.253	633
324.482	870
324.71	1326
324.939	1987
325.168	1736
325.397	870
325.626	605
325.855	506
326.084	473
326.313	456
326.542	478
326.77	507
326.999	601
327.228	809
327.457	1206
327.686	1513
327.914	999
328.143	646
328.372	577
328.6	551
328.829	517
329.058	529
329.287	536
329.515	538
329.744	475
329.972	475
330.201	492
330.43	519
330.658	552
330.887	566
331.115	565
331.344	515
331.572	460
331.801	475
332.03	468
332.258	448
332.486	439
332.715	442
332.943	436
333.172	440
333.4	453
333.629	437
333.857	445
334.085	474
334.314	514
334.542	504
334.771	545
334.999	486
335.227	466
335.455	437
335.684	442
335.912	447
336.14	443
336.369	435
336.597	451
336.825	457
337.053	456
337.281	449
337.51	422
337.738	440
337.966	428
338.194	440
338.422	453
338.65	427
338.878	442
339.106	442
339.334	424
339.562	434
339.79	412
340.018	408
340.246	414
340.474	416
340.702	430
340.93	420
341.158	427
341.386	443
341.614	443
341.842	455
342.07	412
342.298	408
342.526	410
342.754	414
342.981	400
343.209	412
343.437	418
343.665	408
343.893	415
344.12	428
344.348	445
344.576	438
344.804	434
345.031	428
345.259	455
345.487	450
345.714	433
345.942	433
346.17	427
346.397	410
346.625	406
346.853	381
347.08	419
347.308	407
347.535	418
347.763	432
347.99	421
348.218	408
348.445	414
348.673	432
348.9	408
349.128	411
349.355	423
349.583	408
349.81	414
350.037	403
350.265	389
350.492	408
350.72	392
350.947	394
351.174	407
351.402	432
351.629	429
351.856	408
352.083	418
352.311	438
352.538	424
352.765	422
352.992	416
353.22	409
353.447	416
353.674	398
353.901	405
354.128	402
354.355	396
354.583	386
354.81	392
355.037	379
355.264	381
355.491	403
355.718	379
355.945	393
356.172	386
356.399	374
356.626	413
356.853	371
357.08	376
357.307	388
357.534	385
357.761	396
357.988	403
358.215	394
358.441	394
358.668	389
358.895	412
359.122	405
359.349	420
359.576	426
359.802	419
360.029	452
360.256	451
360.483	449
360.709	412
360.936	432
361.163	418
361.39	410
361.616	434
361.843	405
362.07	421
362.296	414
362.523	416
362.749	407
362.976	393
363.203	411
363.429	408
363.656	412
363.882	402
364.109	392
364.335	413
364.562	403
364.788	418
365.015	400
365.241	402
365.468	421
365.694	423
365.92	408
366.147	410
366.373	384
366.599	400
366.826	412
367.052	401
367.278	410
367.505	410
367.731	411
367.957	420
368.184	398
368.41	406
368.636	409
368.862	421
369.089	403
369.315	420
369.541	409
369.767	406
369.993	425
370.219	421
370.445	408
370.672	416
370.898	419
371.124	404
371.35	414
371.576	394
371.802	402
372.028	396
372.254	403
372.48	422
372.706	401
372.932	403
373.158	402
373.384	428
373.61	416
373.835	415
374.061	417
374.287	428
374.513	409
374.739	412
374.965	420
375.191	409
375.416	426
375.642	422
375.868	411
376.094	421
376.319	424
376.545	415
376.771	403
376.997	398
377.222	406
377.448	406
377.674	422
377.899	406
378.125	399
378.35	398
378.576	393
378.802	408
379.027	404
379.253	402
379.478	414
379.704	420
379.929	420
380.155	417
380.38	420
380.606	418
380.831	408
381.057	426
381.282	430
381.507	445
381.733	433
381.958	444
382.184	416
382.409	437
382.634	421
382.86	429
383.085	423
383.31	443
383.535	432
383.761	424
383.986	417
384.211	452
384.436	443
384.662	444
384.887	464
385.112	462
385.337	459
385.562	460
385.787	465
386.013	452
386.238	452
386.463	478
386.688	477
386.913	460
387.138	455
387.363	449
387.588	463
387.813	455
388.038	454
388.263	469
388.488	440
388.713	448
388.938	449
389.163	448
389.387	454
389.612	455
389.837	475
390.062	466
390.287	469
390.512	472
390.736	473
390.961	460
391.186	475
391.411	455
391.636	483
391.86	489
392.085	469
392.31	472
392.534	479
392.759	476
392.984	480
393.208	479
393.433	489
393.658	489
393.882	475
394.107	444
394.331	486
394.556	470
394.78	465
395.005	482
395.229	474
395.454	491
395.678	484
395.903	516
396.127	522
396.352	533
396.576	492
396.801	496
397.025	504
397.249	473
397.474	475
397.698	512
397.922	504
398.147	524
398.371	529
398.595	523
398.82	534
399.044	556
399.268	572
399.492	601
399.717	614
399.941	660
400.165	648
400.389	657
400.613	620
400.837	581
401.062	565
401.286	559
401.51	525
401.734	536
401.958	545
402.182	548
402.406	536
402.63	550
402.854	536
403.078	548
403.302	544
403.526	531
403.75	551
403.974	563
404.198	556
404.422	564
404.645	556
404.869	584
405.093	611
405.317	658
405.541	684
405.765	620
405.988	601
406.212	599
406.436	633
406.66	640
406.883	612
407.107	644
407.331	673
407.555	737
407.778	734
408.002	683
408.226	625
408.449	588
408.673	603
408.896	629
409.12	692
409.344	640
409.567	576
409.791	592
410.014	552
410.238	562
410.461	569
410.685	579
410.908	576
411.132	593
411.355	650
411.578	656
411.802	594
412.025	560
412.249	579
412.472	600
412.695	645
412.919	617
413.142	592
413.365	567
413.589	544
413.812	546
414.035	517
414.258	534
414.482	522
414.705	548
414.928	547
415.151	537
415.374	519
415.597	532
415.821	534
416.044	538
416.267	546
416.49	539
416.713	542
416.936	526
417.159	515
417.382	514
417.605	545
417.828	535
418.051	548
418.274	561
418.497	532
418.72	555
418.943	550
419.166	544
419.389	594
419.611	571
419.834	565
420.057	562
420.28	558
420.503	554
420.726	556
420.948	560
421.171	604
421.394	622
421.617	573
421.839	532
422.062	546
422.285	557
422.507	641
422.73	704
422.953	684
423.175	598
423.398	589
423.621	599
423.843	596
424.066	619
424.288	587
424.511	584
424.733	658
424.956	732
425.178	705
425.401	718
425.623	739
425.846	646
426.068	637
426.291	615
426.513	615
426.735	593
426.958	640
427.18	700
427.402	844
427.625	932
427.847	799
428.069	694
428.292	632
428.514	598
428.736	560
428.958	558
429.181	533
429.403	518
429.625	564
429.847	594
430.069	677
430.292	669
430.514	563
430.736	557
430.958	529
431.18	526
431.402	529
431.624	507
431.846	531
432.068	539
432.29	522
432.512	522
432.734	544
432.956	522
433.178	555
433.4	539
433.622	510
433.844	499
434.066	512
434.287	513
434.509	533
434.731	524
434.953	541
435.175	553
435.397	609
435.618	575
435.84	631
436.062	732
436.284	809
436.505	683
436.727	628
436.949	584
437.17	534
437.392	546
437.614	569
437.835	606
438.057	691
438.278	796
438.5	792
438.721	867
438.943	839
439.165	648
439.386	624
439.608	602
439.829	624
440.05	624
440.272	673
440.493	616
440.715	613
440.936	550
441.158	560
441.379	579
441.6	578
441.822	581
442.043	641
442.264	716
442.486	747
442.707	639
442.928	595
443.149	608
443.371	628
443.592	668
443.813	770
444.034	844
444.255	678
444.476	627
444.698	601
444.919	608
445.14	707
445.361	670
445.582	638
445.803	701
446.024	821
446.245	809
446.466	712
446.687	624
446.908	595
447.129	566
447.35	544
447.571	565
447.792	560
448.013	534
448.234	562
448.455	620
448.675	758
448.896	835
449.117	727
449.338	664
449.559	778
449.779	897
450	702
450.221	594
450.442	543
450.662	532
450.883	530
451.104	565
451.324	539
451.545	517
451.766	502
451.986	485
452.207	488
452.428	496
452.648	481
452.869	503
453.089	497
453.31	502
453.53	480
453.751	498
453.971	489
454.192	501
454.412	498
454.633	495
454.853	484
455.073	490
455.294	524
455.514	561
455.734	562
455.955	492
456.175	452
456.395	461
456.616	469
456.836	483
457.056	468
457.276	444
457.497	469
457.717	448
457.937	472
458.157	496
458.377	489
458.598	508
458.818	547
459.038	627
459.258	635
459.478	574
459.698	528
459.918	513
460.138	536
460.358	559
460.578	556
460.798	552
461.018	541
461.238	549
461.458	560
461.678	544
461.898	547
462.118	554
462.338	550
462.558	545
462.777	552
462.997	578
463.217	602
463.437	612
463.657	573
463.876	566
464.096	598
464.316	582
464.536	577
464.755	562
464.975	573
465.195	606
465.414	655
465.634	610
465.854	578
466.073	548
466.293	543
466.512	505
466.732	505
466.951	502
467.171	510
467.391	512
467.61	520
467.829	525
468.049	526
468.268	505
468.488	493
468.707	496
468.927	491
469.146	500
469.365	496
469.585	490
469.804	494
470.023	511
470.243	500
470.462	502
470.681	530
470.901	544
471.12	537
471.339	513
471.558	514
471.777	519
471.997	504
472.216	508
472.435	546
472.654	537
472.873	512
473.092	505
473.311	516
473.53	516
473.749	525
473.968	550
474.187	677
474.406	680
474.625	573
474.844	539
475.063	542
475.282	542
475.501	538
475.72	566
475.939	530
476.158	544
476.377	530
476.596	544
476.814	554
477.033	533
477.252	528
477.471	563
477.69	563
477.908	556
478.127	554
478.346	572
478.564	577
478.783	564
479.002	584
479.22	590
479.439	587
479.658	603
479.876	634
480.095	624
480.313	630
480.532	654
480.751	642
480.969	656
481.188	681
481.406	709
481.624	692
481.843	626
482.061	634
482.28	606
482.498	600
482.717	624
482.935	625
483.153	616
483.372	600
483.59	622
483.808	606
484.027	600
484.245	616
484.463	608
484.681	635
484.9	617
485.118	617
485.336	616
485.554	653
485.772	605
485.99	632
486.209	622
486.427	626
486.645	646
486.863	652
487.081	638
487.299	676
487.517	664
487.735	657
487.953	667
488.171	658
488.389	646
488.607	650
488.825	660
489.043	666
489.261	662
489.479	660
489.696	662
489.914	668
490.132	674
490.35	672
490.568	701
490.786	692
491.003	692
491.221	685
491.439	745
491.657	742
491.874	712
492.092	734
492.31	741
492.527	729
492.745	753
492.963	766
493.18	757
493.398	769
493.615	786
493.833	762
494.05	781
494.268	769
494.485	772
494.703	777
494.92	748
495.138	755
495.355	765
495.573	772
495.79	764
496.008	783
496.225	776
496.442	779
496.66	769
496.877	794
497.094	788
497.312	801
497.529	776
497.746	795
497.963	814
498.181	838
498.398	860
498.615	853
498.832	873
499.049	905
499.267	902
499.484	948
499.701	993
499.918	1021
500.135	1084
500.352	1107
500.569	1102
500.786	1128
501.003	1130
501.22	1103
501.437	1088
501.654	1049
501.871	994
502.088	969
502.305	902
502.522	883
502.739	875
502.956	848
503.172	860
503.389	819
503.606	819
503.823	790
504.04	800
504.256	790
504.473	803
504.69	799
504.907	779
505.123	762
505.34	758
505.557	737
505.773	741
505.99	748
506.207	759
506.423	747
506.64	714
506.856	719
507.073	710
507.289	710
507.506	718
507.722	715
507.939	752
508.155	726
508.372	685
508.588	683
508.805	687
509.021	700
509.238	688
509.454	716
509.67	724
509.887	700
510.103	680
510.319	680
510.536	755
510.752	1165
510.968	1011
511.184	682
511.401	656
511.617	675
511.833	661
512.049	654
512.265	651
512.481	659
512.698	642
512.914	638
513.13	649
513.346	646
513.562	630
513.778	641
513.994	656
514.21	658
514.426	690
514.642	730
514.858	721
515.074	781
515.29	889
515.506	1215
515.721	1059
515.937	781
516.153	712
516.369	698
516.585	690
516.801	689
517.016	682
517.232	680
517.448	677
517.664	694
517.879	692
518.095	691
518.311	691
518.527	672
518.742	678
518.958	669
519.173	681
519.389	645
519.605	645
519.82	653
520.036	651
520.251	693
520.467	698
520.682	722
520.898	704
521.113	713
521.329	700
521.544	806
521.76	993
521.975	1516
522.19	1522
522.406	908
522.621	698
522.836	659
523.052	648
523.267	614
523.482	615
523.698	592
523.913	586
524.128	595
524.343	574
524.559	572
524.774	561
524.989	587
525.204	597
525.419	580
525.634	556
525.849	569
526.064	578
526.28	563
526.495	544
526.71	544
526.925	524
527.14	531
527.355	546
527.57	530
527.785	541
527.999	525
528.214	544
528.429	533
528.644	527
528.859	546
529.074	541
529.289	567
529.503	618
529.718	637
529.933	575
530.148	552
530.363	546
530.577	560
530.792	542
531.007	538
531.221	550
531.436	550
531.651	516
531.865	527
532.08	522
532.295	516
532.509	510
532.724	538
532.938	535
533.153	530
533.367	494
533.582	518
533.796	530
534.011	508
534.225	539
534.44	503
534.654	492
534.868	502
535.083	508
535.297	520
535.511	517
535.726	518
535.94	546
536.154	532
536.369	518
536.583	518
536.797	504
537.011	486
537.225	502
537.44	501
537.654	513
537.868	506
538.082	483
538.296	496
538.51	492
538.724	500
538.938	487
539.153	478
539.367	534
539.581	513
539.795	486
540.009	485
540.222	504
540.436	491
540.65	493
540.864	493
541.078	507
541.292	496
541.506	497
541.72	483
541.934	471
542.147	485
542.361	489
542.575	511
542.789	490
543.002	461
543.216	491
543.43	497
543.644	522
543.857	491
544.071	485
544.285	493
544.498	503
544.712	498
544.925	489
545.139	484
545.352	473
545.566	469
545.779	466
545.993	505
546.206	478
546.42	480
546.633	494
546.847	481
547.06	466
547.274	496
547.487	463
547.7	486
547.914	488
548.127	472
548.34	473
548.554	470
548.767	458
548.98	481
549.193	465
549.407	464
549.62	482
549.833	457
550.046	479
550.259	473
550.473	484
550.686	477
550.899	470
551.112	451
551.325	465
551.538	465
551.751	465
551.964	471
552.177	481
552.39	472
552.603	480
552.816	502
553.029	488
553.242	491
553.455	490
553.667	488
553.88	500
554.093	498
554.306	482
554.519	500
554.732	481
554.944	463
555.157	474
555.37	475
555.583	444
555.795	457
556.008	450
556.221	437
556.433	432
556.646	444
556.859	439
557.071	453
557.284	434
557.496	428
557.709	453
557.921	421
558.134	430
558.346	422
558.559	444
558.771	436
558.984	428
559.196	412
559.409	405
559.621	413
559.833	454
560.046	440
560.258	410
560.47	403
560.683	430
560.895	422
561.107	445
561.32	430
561.532	432
561.744	422
561.956	408
562.168	406
562.381	414
562.593	429
562.805	421
563.017	427
563.229	429
563.441	404
563.653	421
563.865	418
564.077	438
564.289	457
564.501	462
564.713	458
564.925	447
565.137	468
565.349	456
565.561	461
565.773	485
565.985	474
566.197	521
566.408	514
566.62	522
566.832	534
567.044	532
567.255	546
567.467	541
567.679	545
567.891	549
568.102	574
568.314	556
568.526	551
568.737	506
568.949	499
569.161	474
569.372	462
569.584	453
569.795	428
570.007	429
570.218	447
570.43	493
570.641	426
570.853	432
571.064	436
571.276	422
571.487	408
571.698	430
571.91	418
572.121	401
572.333	395
572.544	402
572.755	383
572.966	394
573.178	377
573.389	395
573.6	378
573.811	378
574.023	389
574.234	375
574.445	361
574.656	370
574.867	382
575.078	390
575.289	361
575.501	372
575.712	363
575.923	358
576.134	372
576.345	345
576.556	346
576.767	342
576.978	350
577.188	376
577.399	363
577.61	346
577.821	361
578.032	366
578.243	382
578.454	580
578.665	446
578.875	369
579.086	345
579.297	368
579.508	346
579.718	353
579.929	339
580.14	347
580.35	345
580.561	348
580.772	346
580.982	342
581.193	346
581.403	353
581.614	347
581.825	319
582.035	329
582.246	331
582.456	345
582.667	328
582.877	332
583.087	347
583.298	341
583.508	331
583.719	334
583.929	325
584.139	341
584.35	334
584.56	333
584.77	337
584.981	344
585.191	328
585.401	323
585.611	332
585.821	329
586.032	334
586.242	323
586.452	314
586.662	324
586.872	314
587.082	331
587.292	323
587.502	305
587.713	331
587.923	330
588.133	316
588.343	300
588.553	323
588.762	317
588.972	339
589.182	315
589.392	316
589.602	320
589.812	334
590.022	332
590.232	322
590.441	319
590.651	311
590.861	309
591.071	318
591.281	321
591.49	327
591.7	321
591.91	323
592.119	325
592.329	324
592.539	328
592.748	346
592.958	356
593.167	338
593.377	340
593.587	355
593.796	362
594.006	357
594.215	352
594.424	341
594.634	351
594.843	334
595.053	330
595.262	316
595.472	344
595.681	313
595.89	315
596.1	297
596.309	297
596.518	322
596.727	301
596.937	292
597.146	316
597.355	297
597.564	313
597.774	296
597.983	294
598.192	293
598.401	288
598.61	289
598.819	312
599.028	301
599.237	274
599.446	289
599.655	278
599.864	292
600.073	282
600.282	275
600.491	275
600.7	290
600.909	292
601.118	308
601.327	294
601.536	278
601.745	284
601.953	284
602.162	293
602.371	270
602.58	285
602.789	296
602.997	287
603.206	281
603.415	273
603.623	286
603.832	280
604.041	273
604.249	271
604.458	265
604.666	258
604.875	277
605.084	269
605.292	278
605.501	272
605.709	252
605.918	278
606.126	249
606.334	265
606.543	264
606.751	257
606.96	262
607.168	255
607.376	273
607.585	275
607.793	257
608.001	263
608.21	263
608.418	269
608.626	263
608.834	278
609.043	264
609.251	255
609.459	251
609.667	254
609.875	244
610.083	257
610.291	261
610.499	267
610.707	263
610.916	267
611.124	273
611.332	245
611.54	280
611.748	258
611.955	271
612.163	268
612.371	261
612.579	270
612.787	252
612.995	259
613.203	275
613.411	255
613.618	275
613.826	257
614.034	272
614.242	256
614.449	260
614.657	259
614.865	267
615.072	257
615.28	261
615.488	246
615.695	254
615.903	244
616.111	252
616.318	262
616.526	247
616.733	246
616.941	240
617.148	246
617.356	260
617.563	256
617.771	263
617.978	260
618.185	254
618.393	261
618.6	242
618.807	240
619.015	244
619.222	237
619.429	243
619.637	248
619.844	266
620.051	237
620.258	227
620.466	234
620.673	235
620.88	254
621.087	245
621.294	246
621.501	251
621.708	232
621.915	227
622.122	233
622.329	232
622.536	246
622.743	248
622.95	259
623.157	223
623.364	236
623.571	214
623.778	236
623.985	217
624.192	214
624.399	215
624.606	220
624.812	233
625.019	233
625.226	238
625.433	216
625.639	236
625.846	222
626.053	217
626.259	231
626.466	224
626.673	223
626.879	221
627.086	232
627.293	205
627.499	228
627.706	226
627.912	220
628.119	215
628.325	209
628.532	222
628.738	225
628.945	211
629.151	219
629.357	230
629.564	217
629.77	226
629.976	196
630.183	191
630.389	216
630.595	208
630.802	208
631.008	217
631.214	192
631.42	210
631.627	210
631.833	199
632.039	220
632.245	213
632.451	188
632.657	183
632.863	199
633.069	193
633.275	211
633.481	206
633.688	204
633.893	194
634.099	198
634.305	202
634.511	205
634.717	194
634.923	195
635.129	204
635.335	199
635.541	195
635.747	181
635.952	190
636.158	176
636.364	200
636.57	198
636.775	178
636.981	184
637.187	205
637.392	186
637.598	184
637.804	196
638.009	193
638.215	200
638.421	189
638.626	200
638.832	179
639.037	178
639.243	190
639.448	198
639.654	190
639.859	181
640.065	190
640.27	190
640.475	186
640.681	205
640.886	173
641.091	201
641.297	192
641.502	188
641.707	176
641.913	178
642.118	182
642.323	177
642.528	192
642.733	187
642.939	189
643.144	174
643.349	186
643.554	168
643.759	175
643.964	167
644.169	169
644.374	185
644.579	194
644.784	171
644.989	158
645.194	170
645.399	183
645.604	165
645.809	170
646.014	174
646.219	179
646.423	176
646.628	162
646.833	182
647.038	176
647.243	163
647.447	165
647.652	184
647.857	168
648.062	186
648.266	173
648.471	170
648.676	186
648.88	186
649.085	176
649.289	168
649.494	171
649.698	186
649.903	201
650.107	173
650.312	187
650.516	181
650.721	164
650.925	164
651.13	155
651.334	151
651.539	162
651.743	144
651.947	157
652.152	160
652.356	156
652.56	121
652.764	139
652.969	136
653.173	129
653.377	134
653.581	142
653.785	151
653.99	148
654.194	140
654.398	132
654.602	159
654.806	126
655.01	156
655.214	133
655.418	136
655.622	148
655.826	148
656.03	139
656.234	137
656.438	134
656.642	142
656.846	132
657.049	144
657.253	134
657.457	121
657.661	120
657.865	113
658.068	110
658.272	104
658.476	110
658.68	108
658.883	108
659.087	99
659.291	100
659.494	105
659.698	106
659.901	117
660.105	92
660.309	88
660.512	100
660.716	93
660.919	95
661.123	93
661.326	99
661.53	96
661.733	88
661.936	76
662.14	90
662.343	80
662.546	71
662.75	84
662.953	98
663.156	75
663.36	85
663.563	90
663.766	83
663.969	87
664.173	92
664.376	91
664.579	79
664.782	76
664.985	80
665.188	82
665.391	81
665.594	85
665.797	84
666	84
666.203	89
666.406	86
666.609	76
666.812	81
667.015	80
667.218	86
667.421	72
667.624	78
667.827	84
668.03	83
668.232	74
668.435	74
668.638	88
668.841	86
669.043	70
669.246	92
669.449	83
669.651	74
669.854	99
670.057	83
670.259	70
670.462	88
670.665	71
670.867	92
671.07	90
671.272	83
671.475	79
671.677	73
671.88	74
672.082	81
672.284	96
672.487	72
672.689	75
672.892	76
