Data from 1969.PennyLincolnUp.Lamp.En5.5.200Scan.071719.P1._HRD10591_14-54-46-972.txt Node
Date: Thu Jul 18 14:54:46 EDT 2019
User: cochatt
Spectrometer: HR+D1059
Trigger mode: 1
Integration Time (sec): 1.000000E-1
Scans to average: 1
Electric dark correction enabled: true
Nonlinearity correction enabled: false
Boxcar width: 0
XAxis mode: Wavelengths
Number of Pixels in Spectrum: 2048
>>>>>Begin Spectral Data<<<<<
223.165	-30
223.4	-30
223.635	-30
223.869	-20
224.104	-9
224.338	5
224.573	-13
224.808	-6
225.042	-14
225.277	-3
225.511	-16
225.746	-3
225.98	9
226.215	13
226.449	7
226.683	29
226.918	21
227.152	30
227.387	40
227.621	31
227.856	41
228.09	39
228.324	41
228.559	64
228.793	54
229.027	73
229.262	101
229.496	107
229.73	112
229.964	122
230.199	100
230.433	102
230.667	92
230.901	111
231.136	120
231.37	95
231.604	90
231.838	101
232.072	118
232.306	105
232.541	106
232.775	93
233.009	97
233.243	117
233.477	104
233.711	103
233.945	130
234.179	118
234.413	109
234.647	108
234.881	108
235.115	107
235.349	118
235.583	97
235.817	101
236.051	123
236.285	121
236.519	98
236.753	132
236.987	122
237.221	147
237.455	165
237.689	147
237.922	133
238.156	115
238.39	116
238.624	99
238.858	113
239.091	121
239.325	117
239.559	119
239.793	117
240.027	103
240.26	120
240.494	123
240.728	117
240.961	121
241.195	121
241.429	109
241.662	135
241.896	123
242.13	124
242.363	121
242.597	125
242.83	129
243.064	121
243.298	143
243.531	120
243.765	122
243.998	138
244.232	138
244.465	125
244.699	142
244.932	132
245.166	132
245.399	141
245.633	115
245.866	126
246.099	137
246.333	139
246.566	136
246.8	128
247.033	145
247.266	133
247.5	131
247.733	129
247.966	152
248.2	137
248.433	138
248.666	154
248.899	153
249.133	158
249.366	165
249.599	166
249.832	155
250.066	149
250.299	161
250.532	162
250.765	167
250.998	173
251.231	164
251.465	182
251.698	168
251.931	167
252.164	159
252.397	168
252.63	169
252.863	174
253.096	172
253.329	173
253.562	188
253.795	185
254.028	172
254.261	190
254.494	170
254.727	204
254.96	217
255.193	207
255.426	192
255.659	172
255.892	201
256.124	188
256.357	189
256.59	183
256.823	188
257.056	177
257.289	174
257.521	188
257.754	189
257.987	166
258.22	179
258.452	170
258.685	172
258.918	157
259.151	193
259.383	162
259.616	194
259.849	174
260.081	196
260.314	198
260.547	213
260.779	197
261.012	193
261.244	186
261.477	177
261.71	188
261.942	180
262.175	200
262.407	173
262.64	176
262.872	164
263.105	168
263.337	180
263.57	188
263.802	183
264.035	189
264.267	191
264.499	191
264.732	189
264.964	181
265.197	188
265.429	179
265.661	167
265.894	191
266.126	204
266.358	194
266.591	206
266.823	175
267.055	186
267.287	200
267.52	186
267.752	202
267.984	189
268.216	210
268.448	190
268.681	197
268.913	199
269.145	217
269.377	211
269.609	212
269.841	227
270.073	233
270.306	229
270.538	249
270.77	243
271.002	257
271.234	239
271.466	235
271.698	238
271.93	243
272.162	261
272.394	253
272.626	237
272.858	238
273.09	217
273.322	222
273.553	228
273.785	210
274.017	213
274.249	227
274.481	223
274.713	225
274.945	220
275.176	232
275.408	233
275.64	213
275.872	225
276.104	204
276.335	233
276.567	228
276.799	233
277.031	237
277.262	266
277.494	253
277.726	251
277.957	248
278.189	234
278.421	213
278.652	217
278.884	241
279.115	225
279.347	231
279.579	226
279.81	229
280.042	218
280.273	235
280.505	228
280.736	208
280.968	218
281.199	229
281.431	236
281.662	242
281.894	222
282.125	229
282.356	261
282.588	242
282.819	254
283.051	236
283.282	236
283.513	245
283.745	234
283.976	228
284.207	249
284.439	254
284.67	252
284.901	234
285.132	256
285.364	239
285.595	226
285.826	251
286.057	228
286.288	255
286.52	257
286.751	249
286.982	248
287.213	250
287.444	246
287.675	232
287.906	251
288.138	244
288.369	234
288.6	259
288.831	269
289.062	264
289.293	261
289.524	248
289.755	247
289.986	249
290.217	244
290.448	265
290.679	249
290.91	258
291.141	254
291.371	260
291.602	257
291.833	259
292.064	260
292.295	253
292.526	251
292.757	263
292.987	257
293.218	253
293.449	253
293.68	272
293.91	259
294.141	257
294.372	260
294.603	258
294.833	268
295.064	273
295.295	262
295.525	259
295.756	265
295.987	263
296.217	271
296.448	275
296.679	277
296.909	254
297.14	260
297.37	261
297.601	261
297.831	279
298.062	271
298.292	264
298.523	270
298.753	284
298.984	287
299.214	269
299.445	277
299.675	256
299.905	284
300.136	273
300.366	279
300.597	283
300.827	277
301.057	281
301.288	275
301.518	297
301.748	282
301.979	300
302.209	290
302.439	285
302.669	294
302.9	280
303.13	272
303.36	296
303.59	281
303.82	291
304.051	284
304.281	300
304.511	284
304.741	290
304.971	279
305.201	291
305.431	280
305.661	289
305.891	286
306.121	278
306.352	281
306.582	296
306.812	291
307.042	290
307.272	290
307.502	298
307.731	289
307.961	290
308.191	295
308.421	301
308.651	297
308.881	298
309.111	292
309.341	304
309.571	305
309.8	306
310.03	307
310.26	285
310.49	295
310.72	326
310.949	335
311.179	312
311.409	299
311.639	291
311.868	308
312.098	313
312.328	318
312.557	333
312.787	325
313.017	326
313.246	339
313.476	294
313.706	313
313.935	323
314.165	298
314.394	323
314.624	339
314.853	334
315.083	317
315.312	343
315.542	320
315.771	301
316.001	317
316.23	309
316.46	310
316.689	318
316.919	309
317.148	339
317.377	326
317.607	307
317.836	313
318.065	317
318.295	322
318.524	330
318.753	322
318.983	314
319.212	322
319.441	316
319.67	316
319.9	314
320.129	324
320.358	311
320.587	317
320.816	317
321.046	330
321.275	321
321.504	331
321.733	334
321.962	322
322.191	316
322.42	340
322.649	337
322.878	346
323.108	345
323.337	354
323.566	375
323.795	366
324.024	393
324.253	450
324.482	587
324.71	847
324.939	1111
325.168	929
325.397	535
325.626	429
325.855	382
326.084	389
326.313	365
326.542	370
326.77	387
326.999	447
327.228	553
327.457	768
327.686	823
327.914	581
328.143	469
328.372	427
328.6	413
328.829	396
329.058	401
329.287	405
329.515	398
329.744	376
329.972	376
330.201	379
330.43	414
330.658	421
330.887	444
331.115	403
331.344	393
331.572	391
331.801	387
332.03	394
332.258	399
332.486	399
332.715	369
332.943	407
333.172	398
333.4	411
333.629	415
333.857	417
334.085	445
334.314	459
334.542	456
334.771	453
334.999	419
335.227	395
335.455	392
335.684	392
335.912	396
336.14	373
336.369	377
336.597	377
336.825	374
337.053	384
337.281	363
337.51	367
337.738	382
337.966	346
338.194	376
338.422	370
338.65	371
338.878	335
339.106	359
339.334	345
339.562	342
339.79	333
340.018	347
340.246	356
340.474	353
340.702	372
340.93	359
341.158	349
341.386	357
341.614	338
341.842	346
342.07	372
342.298	343
342.526	355
342.754	347
342.981	347
343.209	357
343.437	369
343.665	344
343.893	393
344.12	385
344.348	373
344.576	346
344.804	386
345.031	379
345.259	373
345.487	370
345.714	347
345.942	334
346.17	323
346.397	361
346.625	347
346.853	338
347.08	328
347.308	337
347.535	338
347.763	331
347.99	343
348.218	344
348.445	349
348.673	351
348.9	331
349.128	341
349.355	340
349.583	342
349.81	317
350.037	332
350.265	331
350.492	347
350.72	315
350.947	337
351.174	343
351.402	316
351.629	335
351.856	311
352.083	329
352.311	318
352.538	356
352.765	349
352.992	333
353.22	323
353.447	326
353.674	332
353.901	323
354.128	317
354.355	313
354.583	327
354.81	315
355.037	330
355.264	328
355.491	331
355.718	331
355.945	297
356.172	320
356.399	305
356.626	306
356.853	333
357.08	309
357.307	340
357.534	329
357.761	296
357.988	333
358.215	330
358.441	309
358.668	309
358.895	324
359.122	333
359.349	321
359.576	316
359.802	342
360.029	374
360.256	373
360.483	343
360.709	346
360.936	333
361.163	323
361.39	342
361.616	330
361.843	343
362.07	325
362.296	317
362.523	317
362.749	307
362.976	331
363.203	331
363.429	297
363.656	332
363.882	320
364.109	314
364.335	330
364.562	323
364.788	316
365.015	330
365.241	308
365.468	327
365.694	339
365.92	329
366.147	343
366.373	310
366.599	320
366.826	329
367.052	302
367.278	316
367.505	325
367.731	337
367.957	321
368.184	323
368.41	322
368.636	347
368.862	331
369.089	322
369.315	351
369.541	321
369.767	326
369.993	333
370.219	327
370.445	318
370.672	342
370.898	324
371.124	325
371.35	323
371.576	314
371.802	329
372.028	341
372.254	312
372.48	357
372.706	341
372.932	330
373.158	350
373.384	334
373.61	327
373.835	336
374.061	334
374.287	341
374.513	339
374.739	338
374.965	339
375.191	362
375.416	344
375.642	337
375.868	342
376.094	333
376.319	332
376.545	345
376.771	317
376.997	337
377.222	341
377.448	336
377.674	320
377.899	348
378.125	332
378.35	324
378.576	325
378.802	324
379.027	322
379.253	334
379.478	331
379.704	347
379.929	314
380.155	325
380.38	332
380.606	331
380.831	311
381.057	330
381.282	329
381.507	330
381.733	347
381.958	316
382.184	336
382.409	335
382.634	335
382.86	352
383.085	329
383.31	336
383.535	350
383.761	364
383.986	361
384.211	355
384.436	363
384.662	369
384.887	350
385.112	360
385.337	365
385.562	371
385.787	379
386.013	377
386.238	403
386.463	382
386.688	369
386.913	363
387.138	371
387.363	349
387.588	349
387.813	366
388.038	370
388.263	389
388.488	372
388.713	378
388.938	358
389.163	369
389.387	369
389.612	366
389.837	373
390.062	359
390.287	361
390.512	364
390.736	371
390.961	346
391.186	363
391.411	380
391.636	387
391.86	381
392.085	399
392.31	383
392.534	399
392.759	353
392.984	383
393.208	371
393.433	390
393.658	394
393.882	377
394.107	362
394.331	376
394.556	366
394.78	374
395.005	377
395.229	371
395.454	396
395.678	385
395.903	413
396.127	400
396.352	401
396.576	373
396.801	370
397.025	375
397.249	394
397.474	410
397.698	404
397.922	405
398.147	399
398.371	415
398.595	408
398.82	436
399.044	430
399.268	471
399.492	533
399.717	558
399.941	548
400.165	528
400.389	529
400.613	469
400.837	455
401.062	445
401.286	419
401.51	438
401.734	443
401.958	434
402.182	429
402.406	453
402.63	456
402.854	459
403.078	465
403.302	448
403.526	466
403.75	473
403.974	460
404.198	471
404.422	475
404.645	458
404.869	455
405.093	465
405.317	489
405.541	504
405.765	481
405.988	451
406.212	487
406.436	480
406.66	501
406.883	515
407.107	517
407.331	524
407.555	560
407.778	545
408.002	525
408.226	483
408.449	481
408.673	486
408.896	490
409.12	505
409.344	483
409.567	467
409.791	458
410.014	465
410.238	452
410.461	451
410.685	457
410.908	457
411.132	468
411.355	491
411.578	473
411.802	457
412.025	439
412.249	445
412.472	488
412.695	473
412.919	459
413.142	454
413.365	443
413.589	440
413.812	445
414.035	429
414.258	426
414.482	405
414.705	423
414.928	427
415.151	411
415.374	413
415.597	424
415.821	415
416.044	414
416.267	408
416.49	409
416.713	419
416.936	430
417.159	404
417.382	417
417.605	431
417.828	415
418.051	436
418.274	437
418.497	427
418.72	435
418.943	425
419.166	445
419.389	457
419.611	452
419.834	445
420.057	457
420.28	445
420.503	420
420.726	451
420.948	447
421.171	470
421.394	472
421.617	439
421.839	421
422.062	439
422.285	449
422.507	482
422.73	509
422.953	478
423.175	448
423.398	444
423.621	463
423.843	466
424.066	472
424.288	475
424.511	460
424.733	485
424.956	532
425.178	511
425.401	495
425.623	474
425.846	463
426.068	437
426.291	445
426.513	426
426.735	457
426.958	462
427.18	502
427.402	589
427.625	618
427.847	513
428.069	491
428.292	465
428.514	421
428.736	412
428.958	414
429.181	404
429.403	420
429.625	410
429.847	443
430.069	445
430.292	463
430.514	403
430.736	411
430.958	413
431.18	397
431.402	390
431.624	385
431.846	395
432.068	398
432.29	389
432.512	393
432.734	418
432.956	389
433.178	403
433.4	406
433.622	417
433.844	392
434.066	381
434.287	389
434.509	411
434.731	431
434.953	437
435.175	444
435.397	453
435.618	441
435.84	460
436.062	487
436.284	555
436.505	505
436.727	431
436.949	420
437.17	409
437.392	404
437.614	423
437.835	418
438.057	468
438.278	502
438.5	504
438.721	553
438.943	557
439.165	445
439.386	439
439.608	428
439.829	409
440.05	443
440.272	471
440.493	441
440.715	428
440.936	431
441.158	416
441.379	421
441.6	449
441.822	457
442.043	463
442.264	497
442.486	531
442.707	490
442.928	458
443.149	454
443.371	470
443.592	508
443.813	535
444.034	583
444.255	509
444.476	476
444.698	467
444.919	477
445.14	570
445.361	504
445.582	482
445.803	488
446.024	540
446.245	540
446.466	493
446.687	459
446.908	418
447.129	405
447.35	417
447.571	415
447.792	384
448.013	385
448.234	419
448.455	422
448.675	491
448.896	533
449.117	485
449.338	475
449.559	562
449.779	568
450	481
450.221	419
450.442	377
450.662	402
450.883	410
451.104	401
451.324	404
451.545	384
451.766	389
451.986	348
452.207	381
452.428	343
452.648	348
452.869	365
453.089	374
453.31	359
453.53	377
453.751	360
453.971	371
454.192	381
454.412	380
454.633	361
454.853	350
455.073	355
455.294	387
455.514	432
455.734	408
455.955	370
456.175	354
456.395	349
456.616	365
456.836	359
457.056	345
457.276	347
457.497	343
457.717	362
457.937	334
458.157	355
458.377	362
458.598	382
458.818	418
459.038	458
459.258	456
459.478	427
459.698	402
459.918	419
460.138	382
460.358	433
460.578	425
460.798	443
461.018	430
461.238	433
461.458	403
461.678	442
461.898	417
462.118	437
462.338	448
462.558	463
462.777	457
462.997	470
463.217	499
463.437	526
463.657	473
463.876	473
464.096	445
464.316	456
464.536	473
464.755	443
464.975	453
465.195	475
465.414	513
465.634	451
465.854	414
466.073	396
466.293	370
466.512	386
466.732	378
466.951	388
467.171	387
467.391	370
467.61	375
467.829	421
468.049	396
468.268	389
468.488	378
468.707	384
468.927	376
469.146	370
469.365	387
469.585	383
469.804	407
470.023	389
470.243	394
470.462	399
470.681	431
470.901	415
471.12	403
471.339	391
471.558	382
471.777	391
471.997	377
472.216	379
472.435	397
472.654	393
472.873	382
473.092	360
473.311	371
473.53	380
473.749	399
473.968	401
474.187	457
474.406	439
474.625	397
474.844	386
475.063	377
475.282	386
475.501	381
475.72	387
475.939	383
476.158	402
476.377	401
476.596	407
476.814	422
477.033	409
477.252	405
477.471	428
477.69	425
477.908	426
478.127	436
478.346	435
478.564	437
478.783	438
479.002	456
479.22	445
479.439	433
479.658	466
479.876	451
480.095	458
480.313	474
480.532	475
480.751	490
480.969	486
481.188	482
481.406	499
481.624	462
481.843	443
482.061	450
482.28	443
482.498	443
482.717	435
482.935	445
483.153	429
483.372	422
483.59	418
483.808	440
484.027	445
484.245	448
484.463	427
484.681	447
484.9	456
485.118	450
485.336	455
485.554	449
485.772	448
485.99	455
486.209	427
486.427	464
486.645	455
486.863	458
487.081	463
487.299	471
487.517	473
487.735	490
487.953	469
488.171	463
488.389	450
488.607	467
488.825	490
489.043	479
489.261	467
489.479	481
489.696	481
489.914	454
490.132	485
490.35	473
490.568	477
490.786	504
491.003	494
491.221	509
491.439	492
491.657	504
491.874	516
492.092	546
492.31	564
492.527	521
492.745	543
492.963	525
493.18	545
493.398	547
493.615	552
493.833	564
494.05	551
494.268	564
494.485	563
494.703	558
494.92	533
495.138	557
495.355	552
495.573	550
495.79	547
496.008	548
496.225	561
496.442	548
496.66	550
496.877	568
497.094	551
497.312	557
497.529	584
497.746	582
497.963	598
498.181	605
498.398	615
498.615	617
498.832	654
499.049	673
499.267	689
499.484	730
499.701	774
499.918	826
500.135	879
500.352	955
500.569	987
500.786	954
501.003	939
501.22	897
501.437	828
501.654	756
501.871	773
502.088	713
502.305	682
502.522	637
502.739	638
502.956	612
503.172	581
503.389	575
503.606	587
503.823	569
504.04	559
504.256	565
504.473	584
504.69	571
504.907	557
505.123	553
505.34	533
505.557	542
505.773	526
505.99	530
506.207	528
506.423	528
506.64	494
506.856	472
507.073	509
507.289	493
507.506	499
507.722	496
507.939	517
508.155	488
508.372	477
508.588	462
508.805	480
509.021	481
509.238	487
509.454	484
509.67	481
509.887	472
510.103	476
510.319	469
510.536	504
510.752	742
510.968	625
511.184	487
511.401	459
511.617	444
511.833	439
512.049	453
512.265	471
512.481	450
512.698	440
512.914	451
513.13	440
513.346	441
513.562	428
513.778	428
513.994	451
514.21	457
514.426	467
514.642	505
514.858	496
515.074	517
515.29	565
515.506	778
515.721	665
515.937	496
516.153	494
516.369	489
516.585	460
516.801	458
517.016	483
517.232	492
517.448	501
517.664	514
517.879	539
518.095	530
518.311	515
518.527	484
518.742	500
518.958	460
519.173	463
519.389	468
519.605	476
519.82	462
520.036	477
520.251	449
520.467	450
520.682	457
520.898	455
521.113	446
521.329	490
521.544	528
521.76	627
521.975	941
522.19	967
522.406	587
522.621	471
522.836	447
523.052	426
523.267	437
523.482	420
523.698	397
523.913	390
524.128	390
524.343	388
524.559	386
524.774	394
524.989	394
525.204	408
525.419	400
525.634	385
525.849	385
526.064	375
526.28	382
526.495	379
526.71	382
526.925	374
527.14	362
527.355	378
527.57	369
527.785	368
527.999	367
528.214	389
528.429	377
528.644	377
528.859	372
529.074	375
529.289	383
529.503	433
529.718	430
529.933	401
530.148	384
530.363	358
530.577	365
530.792	372
531.007	379
531.221	388
531.436	387
531.651	366
531.865	357
532.08	383
532.295	394
532.509	371
532.724	370
532.938	358
533.153	365
533.367	345
533.582	390
533.796	381
534.011	379
534.225	367
534.44	365
534.654	363
534.868	369
535.083	366
535.297	353
535.511	386
535.726	364
535.94	382
536.154	362
536.369	345
536.583	339
536.797	347
537.011	347
537.225	349
537.44	351
537.654	358
537.868	364
538.082	356
538.296	321
538.51	362
538.724	336
538.938	360
539.153	334
539.367	346
539.581	350
539.795	343
540.009	348
540.222	360
540.436	342
540.65	366
540.864	355
541.078	351
541.292	357
541.506	353
541.72	337
541.934	360
542.147	361
542.361	366
542.575	369
542.789	334
543.002	350
543.216	350
543.43	377
543.644	354
543.857	369
544.071	331
544.285	376
544.498	351
544.712	365
544.925	370
545.139	375
545.352	358
545.566	343
545.779	363
545.993	370
546.206	380
546.42	370
546.633	348
546.847	357
547.06	365
547.274	380
547.487	359
547.7	369
547.914	347
548.127	357
548.34	347
548.554	367
548.767	366
548.98	348
549.193	362
549.407	349
549.62	348
549.833	343
550.046	346
550.259	348
550.473	345
550.686	363
550.899	351
551.112	341
551.325	325
551.538	348
551.751	346
551.964	360
552.177	343
552.39	356
552.603	360
552.816	359
553.029	357
553.242	366
553.455	376
553.667	383
553.88	395
554.093	376
554.306	390
554.519	356
554.732	359
554.944	366
555.157	356
555.37	340
555.583	334
555.795	333
556.008	346
556.221	328
556.433	318
556.646	330
556.859	300
557.071	322
557.284	319
557.496	316
557.709	323
557.921	328
558.134	302
558.346	306
558.559	330
558.771	322
558.984	297
559.196	309
559.409	323
559.621	294
559.833	305
560.046	312
560.258	327
560.47	277
560.683	309
560.895	298
561.107	323
561.32	314
561.532	321
561.744	313
561.956	313
562.168	295
562.381	311
562.593	325
562.805	324
563.017	307
563.229	297
563.441	319
563.653	326
563.865	335
564.077	307
564.289	321
564.501	329
564.713	335
564.925	333
565.137	322
565.349	343
565.561	339
565.773	370
565.985	359
566.197	376
566.408	385
566.62	415
566.832	430
567.044	413
567.255	431
567.467	439
567.679	439
567.891	455
568.102	473
568.314	473
568.526	446
568.737	394
568.949	391
569.161	369
569.372	358
569.584	324
569.795	350
570.007	316
570.218	337
570.43	325
570.641	316
570.853	322
571.064	314
571.276	328
571.487	298
571.698	300
571.91	291
572.121	300
572.333	297
572.544	277
572.755	285
572.966	293
573.178	277
573.389	281
573.6	262
573.811	283
574.023	275
574.234	269
574.445	289
574.656	270
574.867	271
575.078	267
575.289	263
575.501	270
575.712	267
575.923	259
576.134	277
576.345	276
576.556	269
576.767	264
576.978	250
577.188	262
577.399	269
577.61	260
577.821	259
578.032	255
578.243	278
578.454	374
578.665	311
578.875	263
579.086	256
579.297	262
579.508	239
579.718	233
579.929	243
580.14	246
580.35	236
580.561	233
580.772	245
580.982	249
581.193	265
581.403	248
581.614	248
581.825	237
582.035	238
582.246	257
582.456	241
582.667	239
582.877	237
583.087	243
583.298	257
583.508	241
583.719	249
583.929	250
584.139	241
584.35	226
584.56	244
584.77	246
584.981	231
585.191	235
585.401	235
585.611	258
585.821	243
586.032	257
586.242	231
586.452	227
586.662	242
586.872	226
587.082	229
587.292	221
587.502	248
587.713	232
587.923	241
588.133	236
588.343	219
588.553	234
588.762	232
588.972	235
589.182	245
589.392	250
589.602	244
589.812	241
590.022	233
590.232	224
590.441	221
590.651	230
590.861	235
591.071	242
591.281	248
591.49	221
591.7	252
591.91	251
592.119	268
592.329	262
592.539	282
592.748	264
592.958	256
593.167	276
593.377	268
593.587	287
593.796	264
594.006	259
594.215	279
594.424	291
594.634	286
594.843	268
595.053	248
595.262	257
595.472	261
595.681	249
595.89	245
596.1	226
596.309	245
596.518	240
596.727	231
596.937	227
597.146	241
597.355	227
597.564	224
597.774	223
597.983	234
598.192	224
598.401	226
598.61	207
598.819	212
599.028	219
599.237	206
599.446	219
599.655	202
599.864	225
600.073	218
600.282	214
600.491	221
600.7	222
600.909	219
601.118	215
601.327	216
601.536	207
601.745	214
601.953	215
602.162	220
602.371	218
602.58	218
602.789	203
602.997	206
603.206	211
603.415	211
603.623	227
603.832	204
604.041	217
604.249	208
604.458	189
604.666	210
604.875	213
605.084	196
605.292	190
605.501	207
605.709	188
605.918	213
606.126	224
606.334	202
606.543	224
606.751	209
606.96	203
607.168	221
607.376	198
607.585	225
607.793	203
608.001	199
608.21	189
608.418	201
608.626	201
608.834	192
609.043	188
609.251	205
609.459	202
609.667	200
609.875	229
610.083	210
610.291	217
610.499	204
610.707	199
610.916	197
611.124	200
611.332	211
611.54	213
611.748	229
611.955	207
612.163	212
612.371	218
612.579	197
612.787	199
612.995	217
613.203	198
613.411	194
613.618	205
613.826	189
614.034	192
614.242	209
614.449	197
614.657	202
614.865	193
615.072	197
615.28	209
615.488	187
615.695	190
615.903	214
616.111	204
616.318	201
616.526	209
616.733	222
616.941	198
617.148	209
617.356	193
617.563	217
617.771	187
617.978	195
618.185	188
618.393	208
618.6	198
618.807	203
619.015	183
619.222	186
619.429	197
619.637	182
619.844	199
620.051	180
620.258	189
620.466	181
620.673	184
620.88	169
621.087	191
621.294	192
621.501	195
621.708	196
621.915	189
622.122	189
622.329	204
622.536	207
622.743	193
622.95	189
623.157	172
623.364	178
623.571	198
623.778	178
623.985	184
624.192	181
624.399	196
624.606	207
624.812	170
625.019	176
625.226	169
625.433	175
625.639	179
625.846	169
626.053	180
626.259	171
626.466	182
626.673	171
626.879	161
627.086	183
627.293	182
627.499	173
627.706	172
627.912	183
628.119	179
628.325	170
628.532	173
628.738	198
628.945	174
629.151	175
629.357	178
629.564	152
629.77	173
629.976	165
630.183	163
630.389	159
630.595	162
630.802	173
631.008	164
631.214	157
631.42	173
631.627	173
631.833	161
632.039	168
632.245	168
632.451	180
632.657	163
632.863	167
633.069	173
633.275	171
633.481	156
633.688	166
633.893	157
634.099	171
634.305	158
634.511	145
634.717	161
634.923	166
635.129	149
635.335	152
635.541	150
635.747	145
635.952	160
636.158	159
636.364	149
636.57	170
636.775	167
636.981	157
637.187	151
637.392	163
637.598	156
637.804	150
638.009	171
638.215	164
638.421	148
638.626	150
638.832	153
639.037	147
639.243	155
639.448	146
639.654	150
639.859	132
640.065	155
640.27	151
640.475	153
640.681	142
640.886	147
641.091	157
641.297	147
641.502	155
641.707	144
641.913	166
642.118	153
642.323	147
642.528	155
642.733	160
642.939	154
643.144	152
643.349	161
643.554	143
643.759	156
643.964	144
644.169	134
644.374	142
644.579	153
644.784	151
644.989	157
645.194	153
645.399	146
645.604	151
645.809	150
646.014	145
646.219	143
646.423	128
646.628	147
646.833	155
647.038	153
647.243	155
647.447	149
647.652	133
647.857	154
648.062	147
648.266	162
648.471	165
648.676	154
648.88	164
649.085	153
649.289	158
649.494	146
649.698	160
649.903	152
650.107	142
650.312	155
650.516	143
650.721	156
650.925	149
651.13	136
651.334	147
651.539	141
651.743	124
651.947	125
652.152	129
652.356	135
652.56	136
652.764	137
652.969	139
653.173	127
653.377	120
653.581	121
653.785	127
653.99	143
654.194	134
654.398	133
654.602	109
654.806	132
655.01	121
655.214	134
655.418	128
655.622	136
655.826	123
656.03	119
656.234	140
656.438	123
656.642	143
656.846	134
657.049	119
657.253	131
657.457	110
657.661	123
657.865	119
658.068	116
658.272	119
658.476	115
658.68	109
658.883	101
659.087	103
659.291	96
659.494	101
659.698	105
659.901	100
660.105	94
660.309	108
660.512	93
660.716	97
660.919	77
661.123	100
661.326	91
661.53	101
661.733	91
661.936	94
662.14	79
662.343	94
662.546	91
662.75	83
662.953	82
663.156	83
663.36	82
663.563	92
663.766	77
663.969	77
664.173	72
664.376	74
664.579	88
664.782	86
664.985	90
665.188	70
665.391	75
665.594	90
665.797	92
666	77
666.203	83
666.406	89
666.609	84
666.812	77
667.015	77
667.218	83
667.421	88
667.624	93
667.827	74
668.03	75
668.232	86
668.435	72
668.638	72
668.841	87
669.043	72
669.246	78
669.449	86
669.651	83
669.854	75
670.057	77
670.259	83
670.462	74
670.665	89
670.867	76
671.07	81
671.272	84
671.475	91
671.677	81
671.88	81
672.082	86
672.284	91
672.487	89
672.689	84
672.892	77
