Data from 1969.PennyLincolnUp.Lamp.En5.5.200Scan.071719.P1._HRD10591_14-55-10-972.txt Node
Date: Thu Jul 18 14:55:10 EDT 2019
User: cochatt
Spectrometer: HR+D1059
Trigger mode: 1
Integration Time (sec): 1.000000E-1
Scans to average: 1
Electric dark correction enabled: true
Nonlinearity correction enabled: false
Boxcar width: 0
XAxis mode: Wavelengths
Number of Pixels in Spectrum: 2048
>>>>>Begin Spectral Data<<<<<
223.165	-3
223.4	-3
223.635	-3
223.869	-31
224.104	-11
224.338	-14
224.573	-10
224.808	-17
225.042	2
225.277	2
225.511	5
225.746	9
225.98	-7
226.215	18
226.449	11
226.683	11
226.918	21
227.152	14
227.387	43
227.621	43
227.856	45
228.09	45
228.324	54
228.559	59
228.793	73
229.027	72
229.262	87
229.496	96
229.73	106
229.964	124
230.199	103
230.433	104
230.667	81
230.901	99
231.136	105
231.37	111
231.604	103
231.838	109
232.072	108
232.306	118
232.541	83
232.775	111
233.009	107
233.243	109
233.477	101
233.711	93
233.945	108
234.179	100
234.413	111
234.647	108
234.881	123
235.115	108
235.349	111
235.583	121
235.817	118
236.051	114
236.285	104
236.519	116
236.753	117
236.987	133
237.221	138
237.455	164
237.689	158
237.922	124
238.156	110
238.39	104
238.624	104
238.858	125
239.091	126
239.325	115
239.559	118
239.793	112
240.027	129
240.26	129
240.494	112
240.728	125
240.961	125
241.195	129
241.429	115
241.662	112
241.896	116
242.13	136
242.363	123
242.597	129
242.83	120
243.064	113
243.298	111
243.531	136
243.765	126
243.998	132
244.232	124
244.465	134
244.699	130
244.932	121
245.166	113
245.399	114
245.633	137
245.866	144
246.099	116
246.333	134
246.566	135
246.8	153
247.033	140
247.266	150
247.5	153
247.733	149
247.966	150
248.2	147
248.433	152
248.666	149
248.899	170
249.133	164
249.366	186
249.599	170
249.832	153
250.066	162
250.299	161
250.532	153
250.765	180
250.998	194
251.231	193
251.465	180
251.698	173
251.931	152
252.164	182
252.397	164
252.63	154
252.863	180
253.096	182
253.329	201
253.562	172
253.795	184
254.028	172
254.261	175
254.494	194
254.727	213
254.96	218
255.193	200
255.426	186
255.659	209
255.892	191
256.124	193
256.357	194
256.59	186
256.823	193
257.056	173
257.289	182
257.521	189
257.754	187
257.987	193
258.22	180
258.452	183
258.685	189
258.918	165
259.151	173
259.383	189
259.616	191
259.849	193
260.081	199
260.314	206
260.547	203
260.779	189
261.012	205
261.244	199
261.477	183
261.71	187
261.942	182
262.175	192
262.407	192
262.64	160
262.872	185
263.105	204
263.337	173
263.57	185
263.802	184
264.035	194
264.267	174
264.499	197
264.732	194
264.964	207
265.197	188
265.429	196
265.661	182
265.894	189
266.126	186
266.358	193
266.591	208
266.823	183
267.055	192
267.287	210
267.52	180
267.752	194
267.984	185
268.216	198
268.448	217
268.681	202
268.913	204
269.145	221
269.377	229
269.609	239
269.841	229
270.073	229
270.306	258
270.538	262
270.77	253
271.002	255
271.234	254
271.466	253
271.698	250
271.93	257
272.162	269
272.394	256
272.626	249
272.858	230
273.09	247
273.322	220
273.553	246
273.785	230
274.017	235
274.249	225
274.481	228
274.713	233
274.945	245
275.176	221
275.408	227
275.64	234
275.872	216
276.104	210
276.335	240
276.567	224
276.799	236
277.031	254
277.262	256
277.494	284
277.726	256
277.957	261
278.189	237
278.421	236
278.652	236
278.884	233
279.115	228
279.347	245
279.579	234
279.81	238
280.042	238
280.273	236
280.505	239
280.736	234
280.968	233
281.199	221
281.431	250
281.662	235
281.894	239
282.125	248
282.356	263
282.588	262
282.819	266
283.051	239
283.282	226
283.513	252
283.745	241
283.976	250
284.207	251
284.439	264
284.67	257
284.901	259
285.132	271
285.364	246
285.595	248
285.826	241
286.057	246
286.288	255
286.52	255
286.751	239
286.982	251
287.213	256
287.444	254
287.675	277
287.906	274
288.138	289
288.369	269
288.6	267
288.831	273
289.062	262
289.293	266
289.524	272
289.755	250
289.986	253
290.217	270
290.448	256
290.679	254
290.91	263
291.141	262
291.371	270
291.602	256
291.833	265
292.064	257
292.295	266
292.526	273
292.757	272
292.987	266
293.218	253
293.449	250
293.68	266
293.91	271
294.141	272
294.372	254
294.603	263
294.833	260
295.064	276
295.295	266
295.525	262
295.756	263
295.987	282
296.217	288
296.448	277
296.679	287
296.909	258
297.14	266
297.37	273
297.601	293
297.831	282
298.062	283
298.292	270
298.523	281
298.753	270
298.984	274
299.214	290
299.445	279
299.675	300
299.905	294
300.136	282
300.366	286
300.597	274
300.827	281
301.057	303
301.288	293
301.518	304
301.748	304
301.979	296
302.209	273
302.439	287
302.669	284
302.9	298
303.13	281
303.36	289
303.59	292
303.82	311
304.051	312
304.281	294
304.511	300
304.741	285
304.971	294
305.201	277
305.431	275
305.661	300
305.891	310
306.121	291
306.352	314
306.582	314
306.812	298
307.042	287
307.272	293
307.502	296
307.731	301
307.961	296
308.191	288
308.421	289
308.651	303
308.881	315
309.111	298
309.341	308
309.571	305
309.8	305
310.03	321
310.26	304
310.49	338
310.72	339
310.949	337
311.179	333
311.409	321
311.639	313
311.868	314
312.098	330
312.328	317
312.557	321
312.787	327
313.017	343
313.246	333
313.476	310
313.706	320
313.935	314
314.165	333
314.394	342
314.624	347
314.853	326
315.083	301
315.312	320
315.542	331
315.771	324
316.001	320
316.23	318
316.46	324
316.689	324
316.919	323
317.148	320
317.377	338
317.607	337
317.836	318
318.065	317
318.295	322
318.524	315
318.753	331
318.983	315
319.212	311
319.441	331
319.67	329
319.9	319
320.129	327
320.358	318
320.587	344
320.816	320
321.046	331
321.275	321
321.504	353
321.733	337
321.962	350
322.191	320
322.42	342
322.649	365
322.878	346
323.108	340
323.337	385
323.566	380
323.795	390
324.024	418
324.253	491
324.482	622
324.71	858
324.939	1183
325.168	1002
325.397	586
325.626	444
325.855	388
326.084	386
326.313	388
326.542	399
326.77	412
326.999	471
327.228	601
327.457	794
327.686	911
327.914	608
328.143	490
328.372	450
328.6	421
328.829	407
329.058	429
329.287	446
329.515	424
329.744	405
329.972	404
330.201	419
330.43	462
330.658	453
330.887	446
331.115	453
331.344	430
331.572	398
331.801	410
332.03	402
332.258	395
332.486	390
332.715	402
332.943	402
333.172	390
333.4	394
333.629	431
333.857	417
334.085	450
334.314	436
334.542	449
334.771	460
334.999	437
335.227	399
335.455	390
335.684	422
335.912	403
336.14	393
336.369	390
336.597	389
336.825	397
337.053	385
337.281	373
337.51	383
337.738	389
337.966	384
338.194	375
338.422	372
338.65	359
338.878	376
339.106	369
339.334	362
339.562	372
339.79	358
340.018	361
340.246	369
340.474	368
340.702	371
340.93	363
341.158	380
341.386	358
341.614	344
341.842	376
342.07	353
342.298	360
342.526	364
342.754	356
342.981	366
343.209	365
343.437	367
343.665	376
343.893	380
344.12	407
344.348	382
344.576	377
344.804	390
345.031	388
345.259	381
345.487	363
345.714	344
345.942	359
346.17	345
346.397	349
346.625	357
346.853	357
347.08	373
347.308	341
347.535	360
347.763	365
347.99	351
348.218	349
348.445	349
348.673	356
348.9	337
349.128	345
349.355	331
349.583	338
349.81	343
350.037	352
350.265	358
350.492	354
350.72	335
350.947	346
351.174	326
351.402	368
351.629	328
351.856	343
352.083	334
352.311	344
352.538	351
352.765	351
352.992	334
353.22	337
353.447	345
353.674	340
353.901	334
354.128	330
354.355	338
354.583	330
354.81	342
355.037	316
355.264	333
355.491	315
355.718	331
355.945	328
356.172	312
356.399	326
356.626	325
356.853	311
357.08	336
357.307	334
357.534	309
357.761	316
357.988	313
358.215	326
358.441	331
358.668	335
358.895	341
359.122	328
359.349	331
359.576	320
359.802	352
360.029	373
360.256	380
360.483	370
360.709	352
360.936	357
361.163	355
361.39	346
361.616	337
361.843	331
362.07	335
362.296	344
362.523	342
362.749	330
362.976	342
363.203	338
363.429	336
363.656	322
363.882	332
364.109	339
364.335	345
364.562	338
364.788	334
365.015	337
365.241	318
365.468	320
365.694	332
365.92	329
366.147	325
366.373	337
366.599	324
366.826	319
367.052	340
367.278	343
367.505	321
367.731	343
367.957	339
368.184	345
368.41	338
368.636	334
368.862	348
369.089	334
369.315	316
369.541	332
369.767	337
369.993	318
370.219	330
370.445	328
370.672	354
370.898	331
371.124	325
371.35	344
371.576	353
371.802	347
372.028	349
372.254	351
372.48	360
372.706	343
372.932	358
373.158	355
373.384	344
373.61	352
373.835	328
374.061	348
374.287	358
374.513	345
374.739	342
374.965	359
375.191	372
375.416	357
375.642	345
375.868	346
376.094	344
376.319	328
376.545	360
376.771	337
376.997	333
377.222	332
377.448	330
377.674	330
377.899	342
378.125	334
378.35	337
378.576	321
378.802	333
379.027	323
379.253	332
379.478	309
379.704	332
379.929	328
380.155	352
380.38	326
380.606	333
380.831	331
381.057	351
381.282	352
381.507	344
381.733	339
381.958	354
382.184	335
382.409	350
382.634	349
382.86	355
383.085	331
383.31	353
383.535	354
383.761	376
383.986	366
384.211	361
384.436	366
384.662	342
384.887	368
385.112	396
385.337	376
385.562	375
385.787	380
386.013	380
386.238	369
386.463	398
386.688	381
386.913	384
387.138	378
387.363	381
387.588	379
387.813	386
388.038	376
388.263	381
388.488	361
388.713	365
388.938	365
389.163	366
389.387	374
389.612	366
389.837	363
390.062	386
390.287	371
390.512	376
390.736	366
390.961	377
391.186	376
391.411	375
391.636	384
391.86	398
392.085	408
392.31	396
392.534	378
392.759	389
392.984	380
393.208	380
393.433	368
393.658	388
393.882	375
394.107	369
394.331	388
394.556	407
394.78	370
395.005	383
395.229	380
395.454	407
395.678	417
395.903	411
396.127	397
396.352	407
396.576	393
396.801	379
397.025	388
397.249	388
397.474	398
397.698	421
397.922	418
398.147	416
398.371	429
398.595	438
398.82	422
399.044	466
399.268	477
399.492	516
399.717	568
399.941	571
400.165	535
400.389	551
400.613	469
400.837	465
401.062	470
401.286	420
401.51	419
401.734	445
401.958	444
402.182	442
402.406	456
402.63	449
402.854	455
403.078	449
403.302	466
403.526	474
403.75	487
403.974	486
404.198	482
404.422	469
404.645	493
404.869	457
405.093	508
405.317	529
405.541	505
405.765	480
405.988	488
406.212	485
406.436	477
406.66	486
406.883	480
407.107	535
407.331	542
407.555	563
407.778	550
408.002	546
408.226	504
408.449	504
408.673	506
408.896	512
409.12	551
409.344	502
409.567	448
409.791	449
410.014	464
410.238	441
410.461	445
410.685	466
410.908	454
411.132	466
411.355	505
411.578	473
411.802	449
412.025	443
412.249	467
412.472	496
412.695	501
412.919	468
413.142	467
413.365	439
413.589	461
413.812	438
414.035	437
414.258	430
414.482	443
414.705	440
414.928	424
415.151	416
415.374	432
415.597	423
415.821	436
416.044	437
416.267	430
416.49	420
416.713	422
416.936	419
417.159	420
417.382	406
417.605	423
417.828	429
418.051	454
418.274	444
418.497	431
418.72	443
418.943	446
419.166	469
419.389	450
419.611	449
419.834	460
420.057	473
420.28	458
420.503	448
420.726	443
420.948	470
421.171	456
421.394	462
421.617	454
421.839	455
422.062	449
422.285	466
422.507	465
422.73	515
422.953	524
423.175	486
423.398	454
423.621	475
423.843	461
424.066	484
424.288	472
424.511	482
424.733	521
424.956	539
425.178	524
425.401	511
425.623	538
425.846	476
426.068	437
426.291	448
426.513	431
426.735	448
426.958	475
427.18	539
427.402	585
427.625	616
427.847	544
428.069	498
428.292	455
428.514	417
428.736	416
428.958	434
429.181	413
429.403	400
429.625	410
429.847	447
430.069	480
430.292	464
430.514	429
430.736	406
430.958	422
431.18	399
431.402	391
431.624	408
431.846	414
432.068	403
432.29	408
432.512	400
432.734	400
432.956	422
433.178	411
433.4	407
433.622	416
433.844	420
434.066	423
434.287	402
434.509	424
434.731	434
434.953	425
435.175	444
435.397	448
435.618	461
435.84	459
436.062	497
436.284	544
436.505	457
436.727	453
436.949	423
437.17	421
437.392	400
437.614	433
437.835	438
438.057	485
438.278	527
438.5	538
438.721	557
438.943	553
439.165	466
439.386	436
439.608	456
439.829	430
440.05	460
440.272	477
440.493	462
440.715	467
440.936	438
441.158	435
441.379	436
441.6	465
441.822	473
442.043	482
442.264	522
442.486	526
442.707	486
442.928	481
443.149	470
443.371	469
443.592	521
443.813	564
444.034	584
444.255	518
444.476	496
444.698	501
444.919	480
445.14	577
445.361	539
445.582	507
445.803	509
446.024	564
446.245	557
446.466	551
446.687	453
446.908	466
447.129	431
447.35	423
447.571	412
447.792	403
448.013	405
448.234	419
448.455	442
448.675	506
448.896	551
449.117	493
449.338	459
449.559	548
449.779	599
450	486
450.221	426
450.442	416
450.662	407
450.883	400
451.104	412
451.324	397
451.545	384
451.766	388
451.986	380
452.207	392
452.428	380
452.648	364
452.869	401
453.089	382
453.31	376
453.53	365
453.751	380
453.971	382
454.192	383
454.412	367
454.633	373
454.853	360
455.073	372
455.294	388
455.514	426
455.734	417
455.955	360
456.175	349
456.395	352
456.616	352
456.836	361
457.056	348
457.276	358
457.497	365
457.717	369
457.937	367
458.157	368
458.377	375
458.598	385
458.818	400
459.038	460
459.258	479
459.478	414
459.698	407
459.918	410
460.138	419
460.358	433
460.578	436
460.798	442
461.018	455
461.238	433
461.458	426
461.678	436
461.898	430
462.118	445
462.338	466
462.558	455
462.777	474
462.997	502
463.217	486
463.437	502
463.657	481
463.876	480
464.096	448
464.316	481
464.536	486
464.755	476
464.975	474
465.195	466
465.414	485
465.634	462
465.854	433
466.073	421
466.293	396
466.512	408
466.732	394
466.951	394
467.171	383
467.391	399
467.61	406
467.829	386
468.049	390
468.268	384
468.488	380
468.707	388
468.927	382
469.146	351
469.365	377
469.585	382
469.804	386
470.023	385
470.243	401
470.462	424
470.681	415
470.901	411
471.12	416
471.339	397
471.558	397
471.777	404
471.997	397
472.216	392
472.435	410
472.654	398
472.873	409
473.092	388
473.311	392
473.53	376
473.749	386
473.968	399
474.187	492
474.406	472
474.625	411
474.844	393
475.063	394
475.282	395
475.501	396
475.72	404
475.939	378
476.158	388
476.377	375
476.596	412
476.814	409
477.033	413
477.252	408
477.471	421
477.69	406
477.908	431
478.127	436
478.346	448
478.564	448
478.783	451
479.002	452
479.22	462
479.439	454
479.658	480
479.876	470
480.095	444
480.313	505
480.532	497
480.751	502
480.969	501
481.188	520
481.406	530
481.624	486
481.843	466
482.061	472
482.28	455
482.498	456
482.717	428
482.935	449
483.153	430
483.372	429
483.59	445
483.808	449
484.027	456
484.245	429
484.463	430
484.681	472
484.9	452
485.118	464
485.336	433
485.554	473
485.772	468
485.99	468
486.209	461
486.427	470
486.645	465
486.863	479
487.081	481
487.299	486
487.517	470
487.735	471
487.953	470
488.171	494
488.389	489
488.607	503
488.825	472
489.043	478
489.261	485
489.479	487
489.696	497
489.914	492
490.132	492
490.35	493
490.568	493
490.786	530
491.003	504
491.221	534
491.439	512
491.657	563
491.874	528
492.092	562
492.31	551
492.527	560
492.745	557
492.963	555
493.18	556
493.398	559
493.615	564
493.833	553
494.05	553
494.268	557
494.485	570
494.703	572
494.92	536
495.138	569
495.355	577
495.573	559
495.79	572
496.008	568
496.225	571
496.442	540
496.66	573
496.877	576
497.094	577
497.312	601
497.529	588
497.746	600
497.963	622
498.181	625
498.398	632
498.615	670
498.832	666
499.049	687
499.267	702
499.484	764
499.701	823
499.918	848
500.135	914
500.352	987
500.569	1000
500.786	1004
501.003	968
501.22	915
501.437	851
501.654	823
501.871	792
502.088	715
502.305	690
502.522	673
502.739	656
502.956	639
503.172	617
503.389	590
503.606	594
503.823	599
504.04	593
504.256	584
504.473	598
504.69	548
504.907	568
505.123	552
505.34	524
505.557	543
505.773	557
505.99	540
506.207	532
506.423	543
506.64	514
506.856	525
507.073	507
507.289	519
507.506	499
507.722	533
507.939	534
508.155	525
508.372	494
508.588	487
508.805	494
509.021	500
509.238	497
509.454	500
509.67	492
509.887	465
510.103	494
510.319	490
510.536	517
510.752	764
510.968	624
511.184	481
511.401	471
511.617	454
511.833	469
512.049	451
512.265	454
512.481	454
512.698	445
512.914	456
513.13	474
513.346	434
513.562	440
513.778	438
513.994	452
514.21	465
514.426	458
514.642	489
514.858	514
515.074	505
515.29	570
515.506	799
515.721	668
515.937	533
516.153	493
516.369	489
516.585	478
516.801	497
517.016	510
517.232	517
517.448	501
517.664	514
517.879	513
518.095	519
518.311	561
518.527	503
518.742	492
518.958	496
519.173	478
519.389	451
519.605	468
519.82	447
520.036	475
520.251	465
520.467	489
520.682	466
520.898	488
521.113	503
521.329	515
521.544	570
521.76	664
521.975	1000
522.19	968
522.406	591
522.621	477
522.836	458
523.052	444
523.267	426
523.482	424
523.698	418
523.913	429
524.128	418
524.343	408
524.559	415
524.774	393
524.989	390
525.204	418
525.419	420
525.634	391
525.849	412
526.064	385
526.28	392
526.495	391
526.71	406
526.925	390
527.14	399
527.355	392
527.57	365
527.785	377
527.999	382
528.214	390
528.429	393
528.644	392
528.859	390
529.074	414
529.289	402
529.503	455
529.718	420
529.933	416
530.148	388
530.363	386
530.577	384
530.792	364
531.007	388
531.221	388
531.436	402
531.651	374
531.865	384
532.08	388
532.295	386
532.509	358
532.724	390
532.938	384
533.153	369
533.367	384
533.582	386
533.796	376
534.011	376
534.225	386
534.44	369
534.654	362
534.868	385
535.083	393
535.297	364
535.511	384
535.726	400
535.94	379
536.154	363
536.369	378
536.583	346
536.797	377
537.011	360
537.225	374
537.44	366
537.654	377
537.868	350
538.082	367
538.296	374
538.51	338
538.724	375
538.938	359
539.153	346
539.367	378
539.581	365
539.795	342
540.009	362
540.222	375
540.436	358
540.65	365
540.864	376
541.078	369
541.292	363
541.506	370
541.72	374
541.934	374
542.147	370
542.361	361
542.575	356
542.789	358
543.002	366
543.216	393
543.43	360
543.644	361
543.857	378
544.071	385
544.285	376
544.498	370
544.712	360
544.925	360
545.139	366
545.352	373
545.566	380
545.779	369
545.993	383
546.206	380
546.42	393
546.633	374
546.847	375
547.06	347
547.274	343
547.487	361
547.7	357
547.914	377
548.127	360
548.34	365
548.554	372
548.767	356
548.98	376
549.193	365
549.407	357
549.62	352
549.833	354
550.046	348
550.259	358
550.473	354
550.686	354
550.899	350
551.112	339
551.325	366
551.538	340
551.751	340
551.964	360
552.177	360
552.39	353
552.603	352
552.816	379
553.029	386
553.242	372
553.455	382
553.667	368
553.88	383
554.093	368
554.306	370
554.519	381
554.732	380
554.944	365
555.157	356
555.37	353
555.583	344
555.795	353
556.008	353
556.221	348
556.433	323
556.646	339
556.859	313
557.071	328
557.284	326
557.496	306
557.709	327
557.921	332
558.134	334
558.346	344
558.559	325
558.771	316
558.984	317
559.196	309
559.409	301
559.621	337
559.833	327
560.046	300
560.258	310
560.47	325
560.683	313
560.895	331
561.107	310
561.32	316
561.532	317
561.744	321
561.956	317
562.168	315
562.381	320
562.593	322
562.805	325
563.017	310
563.229	331
563.441	321
563.653	321
563.865	315
564.077	319
564.289	328
564.501	335
564.713	313
564.925	338
565.137	345
565.349	353
565.561	375
565.773	372
565.985	360
566.197	382
566.408	390
566.62	415
566.832	428
567.044	461
567.255	445
567.467	442
567.679	462
567.891	470
568.102	471
568.314	471
568.526	437
568.737	412
568.949	392
569.161	381
569.372	357
569.584	346
569.795	335
570.007	335
570.218	340
570.43	338
570.641	320
570.853	331
571.064	322
571.276	334
571.487	311
571.698	312
571.91	310
572.121	296
572.333	296
572.544	287
572.755	279
572.966	283
573.178	281
573.389	273
573.6	289
573.811	279
574.023	289
574.234	266
574.445	284
574.656	278
574.867	283
575.078	301
575.289	269
575.501	261
575.712	273
575.923	281
576.134	268
576.345	289
576.556	272
576.767	268
576.978	287
577.188	271
577.399	290
577.61	261
577.821	258
578.032	271
578.243	294
578.454	386
578.665	310
578.875	248
579.086	273
579.297	256
579.508	255
579.718	269
579.929	266
580.14	269
580.35	268
580.561	242
580.772	265
580.982	252
581.193	250
581.403	260
581.614	242
581.825	270
582.035	252
582.246	239
582.456	233
582.667	251
582.877	249
583.087	233
583.298	266
583.508	250
583.719	229
583.929	267
584.139	248
584.35	256
584.56	236
584.77	241
584.981	249
585.191	236
585.401	262
585.611	269
585.821	246
586.032	228
586.242	232
586.452	233
586.662	264
586.872	233
587.082	241
587.292	224
587.502	229
587.713	249
587.923	253
588.133	249
588.343	235
588.553	242
588.762	264
588.972	257
589.182	254
589.392	241
589.602	234
589.812	248
590.022	230
590.232	252
590.441	248
590.651	245
590.861	258
591.071	227
591.281	238
591.49	246
591.7	274
591.91	272
592.119	280
592.329	256
592.539	264
592.748	270
592.958	288
593.167	277
593.377	284
593.587	265
593.796	282
594.006	291
594.215	300
594.424	279
594.634	282
594.843	263
595.053	252
595.262	264
595.472	251
595.681	264
595.89	237
596.1	239
596.309	231
596.518	243
596.727	223
596.937	244
597.146	229
597.355	241
597.564	252
597.774	236
597.983	232
598.192	236
598.401	230
598.61	216
598.819	222
599.028	241
599.237	215
599.446	216
599.655	225
599.864	218
600.073	221
600.282	234
600.491	202
600.7	213
600.909	222
601.118	224
601.327	215
601.536	218
601.745	218
601.953	225
602.162	224
602.371	201
602.58	213
602.789	220
602.997	216
603.206	208
603.415	209
603.623	219
603.832	210
604.041	217
604.249	218
604.458	219
604.666	200
604.875	216
605.084	207
605.292	213
605.501	209
605.709	216
605.918	193
606.126	210
606.334	227
606.543	201
606.751	213
606.96	190
607.168	210
607.376	209
607.585	190
607.793	236
608.001	217
608.21	222
608.418	220
608.626	208
608.834	200
609.043	215
609.251	205
609.459	209
609.667	212
609.875	208
610.083	213
610.291	215
610.499	209
610.707	204
610.916	218
611.124	221
611.332	220
611.54	207
611.748	215
611.955	227
612.163	215
612.371	204
612.579	207
612.787	207
612.995	198
613.203	210
613.411	199
613.618	191
613.826	221
614.034	196
614.242	214
614.449	201
614.657	209
614.865	207
615.072	214
615.28	209
615.488	203
615.695	192
615.903	186
616.111	201
616.318	212
616.526	202
616.733	206
616.941	206
617.148	215
617.356	193
617.563	183
617.771	190
617.978	197
618.185	200
618.393	208
618.6	200
618.807	205
619.015	207
619.222	203
619.429	205
619.637	204
619.844	186
620.051	208
620.258	190
620.466	196
620.673	203
620.88	200
621.087	192
621.294	197
621.501	190
621.708	195
621.915	206
622.122	200
622.329	199
622.536	185
622.743	196
622.95	198
623.157	200
623.364	194
623.571	181
623.778	185
623.985	200
624.192	186
624.399	193
624.606	184
624.812	192
625.019	199
625.226	190
625.433	176
625.639	172
625.846	187
626.053	181
626.259	175
626.466	175
626.673	170
626.879	178
627.086	196
627.293	177
627.499	178
627.706	167
627.912	180
628.119	180
628.325	177
628.532	180
628.738	180
628.945	183
629.151	182
629.357	182
629.564	160
629.77	170
629.976	178
630.183	165
630.389	185
630.595	167
630.802	189
631.008	180
631.214	186
631.42	171
631.627	175
631.833	174
632.039	170
632.245	176
632.451	158
632.657	176
632.863	165
633.069	172
633.275	164
633.481	172
633.688	162
633.893	173
634.099	175
634.305	172
634.511	183
634.717	154
634.923	167
635.129	170
635.335	161
635.541	161
635.747	171
635.952	142
636.158	159
636.364	177
636.57	177
636.775	176
636.981	173
637.187	162
637.392	171
637.598	158
637.804	173
638.009	135
638.215	170
638.421	159
638.626	146
638.832	158
639.037	171
639.243	164
639.448	160
639.654	168
639.859	166
640.065	166
640.27	152
640.475	148
640.681	155
640.886	145
641.091	154
641.297	148
641.502	161
641.707	153
641.913	151
642.118	154
642.323	154
642.528	155
642.733	150
642.939	132
643.144	144
643.349	160
643.554	161
643.759	175
643.964	156
644.169	164
644.374	146
644.579	144
644.784	145
644.989	164
645.194	158
645.399	151
645.604	169
645.809	159
646.014	150
646.219	167
646.423	172
646.628	141
646.833	158
647.038	137
647.243	162
647.447	174
647.652	160
647.857	158
648.062	150
648.266	161
648.471	156
648.676	141
648.88	147
649.085	134
649.289	163
649.494	151
649.698	178
649.903	162
650.107	155
650.312	159
650.516	151
650.721	145
650.925	134
651.13	143
651.334	133
651.539	142
651.743	140
651.947	154
652.152	150
652.356	150
652.56	132
652.764	139
652.969	126
653.173	132
653.377	124
653.581	133
653.785	107
653.99	132
654.194	122
654.398	112
654.602	127
654.806	137
655.01	136
655.214	137
655.418	136
655.622	135
655.826	137
656.03	114
656.234	128
656.438	133
656.642	140
656.846	141
657.049	144
657.253	129
657.457	125
657.661	121
657.865	111
658.068	121
658.272	103
658.476	113
658.68	102
658.883	104
659.087	116
659.291	108
659.494	107
659.698	85
659.901	105
660.105	101
660.309	115
660.512	101
660.716	84
660.919	103
661.123	95
661.326	95
661.53	90
661.733	87
661.936	97
662.14	91
662.343	97
662.546	91
662.75	82
662.953	87
663.156	89
663.36	85
663.563	86
663.766	77
663.969	85
664.173	78
664.376	77
664.579	79
664.782	92
664.985	80
665.188	91
665.391	83
665.594	92
665.797	98
666	87
666.203	88
666.406	86
666.609	92
666.812	84
667.015	82
667.218	97
667.421	102
667.624	75
667.827	82
668.03	84
668.232	90
668.435	93
668.638	75
668.841	79
669.043	83
669.246	69
669.449	82
669.651	87
669.854	74
670.057	70
670.259	80
670.462	99
670.665	80
670.867	84
671.07	76
671.272	94
671.475	92
671.677	86
671.88	82
672.082	85
672.284	80
672.487	77
672.689	80
672.892	95
