Data from 1970.PennyLincolnUp.Lamp.En5.5.200Scan.071719.P1._HRD10591_15-16-08-841.txt Node
Date: Thu Jul 18 15:16:08 EDT 2019
User: cochatt
Spectrometer: HR+D1059
Trigger mode: 1
Integration Time (sec): 1.000000E-1
Scans to average: 1
Electric dark correction enabled: true
Nonlinearity correction enabled: false
Boxcar width: 0
XAxis mode: Wavelengths
Number of Pixels in Spectrum: 2048
>>>>>Begin Spectral Data<<<<<
223.165	-13
223.4	-13
223.635	-13
223.869	-14
224.104	-19
224.338	-21
224.573	-10
224.808	1
225.042	2
225.277	-7
225.511	-11
225.746	-13
225.98	11
226.215	8
226.449	13
226.683	16
226.918	21
227.152	36
227.387	20
227.621	33
227.856	31
228.09	47
228.324	50
228.559	55
228.793	53
229.027	106
229.262	116
229.496	137
229.73	155
229.964	186
230.199	125
230.433	104
230.667	120
230.901	108
231.136	127
231.37	123
231.604	126
231.838	103
232.072	102
232.306	119
232.541	139
232.775	123
233.009	123
233.243	124
233.477	117
233.711	105
233.945	127
234.179	120
234.413	137
234.647	134
234.881	122
235.115	121
235.349	135
235.583	136
235.817	125
236.051	149
236.285	135
236.519	141
236.753	127
236.987	163
237.221	224
237.455	259
237.689	179
237.922	151
238.156	134
238.39	133
238.624	133
238.858	133
239.091	135
239.325	129
239.559	146
239.793	142
240.027	130
240.26	158
240.494	168
240.728	170
240.961	168
241.195	154
241.429	150
241.662	144
241.896	158
242.13	139
242.363	137
242.597	146
242.83	148
243.064	155
243.298	136
243.531	139
243.765	155
243.998	162
244.232	145
244.465	151
244.699	141
244.932	147
245.166	147
245.399	160
245.633	156
245.866	156
246.099	163
246.333	157
246.566	149
246.8	159
247.033	155
247.266	165
247.5	180
247.733	193
247.966	179
248.2	188
248.433	184
248.666	195
248.899	213
249.133	226
249.366	233
249.599	203
249.832	198
250.066	192
250.299	205
250.532	232
250.765	221
250.998	268
251.231	275
251.465	236
251.698	231
251.931	226
252.164	222
252.397	226
252.63	239
252.863	233
253.096	236
253.329	256
253.562	239
253.795	255
254.028	239
254.261	244
254.494	266
254.727	292
254.96	329
255.193	326
255.426	278
255.659	260
255.892	270
256.124	273
256.357	261
256.59	284
256.823	248
257.056	233
257.289	237
257.521	227
257.754	231
257.987	242
258.22	244
258.452	238
258.685	236
258.918	243
259.151	209
259.383	216
259.616	243
259.849	253
260.081	273
260.314	287
260.547	267
260.779	273
261.012	264
261.244	243
261.477	246
261.71	244
261.942	257
262.175	269
262.407	266
262.64	251
262.872	241
263.105	214
263.337	243
263.57	230
263.802	223
264.035	228
264.267	212
264.499	213
264.732	242
264.964	220
265.197	216
265.429	230
265.661	201
265.894	219
266.126	227
266.358	218
266.591	227
266.823	234
267.055	243
267.287	246
267.52	231
267.752	236
267.984	255
268.216	247
268.448	244
268.681	229
268.913	258
269.145	269
269.377	314
269.609	281
269.841	289
270.073	286
270.306	324
270.538	351
270.77	343
271.002	348
271.234	323
271.466	324
271.698	346
271.93	337
272.162	359
272.394	348
272.626	330
272.858	325
273.09	284
273.322	277
273.553	289
273.785	290
274.017	289
274.249	278
274.481	299
274.713	273
274.945	289
275.176	301
275.408	282
275.64	251
275.872	277
276.104	273
276.335	283
276.567	297
276.799	293
277.031	327
277.262	355
277.494	336
277.726	326
277.957	305
278.189	290
278.421	285
278.652	293
278.884	290
279.115	279
279.347	295
279.579	281
279.81	274
280.042	269
280.273	285
280.505	291
280.736	280
280.968	274
281.199	271
281.431	283
281.662	276
281.894	267
282.125	265
282.356	270
282.588	335
282.819	335
283.051	308
283.282	287
283.513	268
283.745	271
283.976	279
284.207	282
284.439	288
284.67	276
284.901	275
285.132	277
285.364	269
285.595	260
285.826	290
286.057	278
286.288	270
286.52	260
286.751	284
286.982	284
287.213	307
287.444	287
287.675	276
287.906	287
288.138	309
288.369	305
288.6	324
288.831	298
289.062	295
289.293	290
289.524	284
289.755	304
289.986	297
290.217	287
290.448	291
290.679	291
290.91	285
291.141	280
291.371	277
291.602	305
291.833	294
292.064	280
292.295	311
292.526	287
292.757	283
292.987	319
293.218	291
293.449	299
293.68	295
293.91	296
294.141	280
294.372	286
294.603	273
294.833	279
295.064	297
295.295	292
295.525	291
295.756	301
295.987	308
296.217	329
296.448	341
296.679	309
296.909	297
297.14	295
297.37	286
297.601	288
297.831	323
298.062	298
298.292	291
298.523	300
298.753	313
298.984	298
299.214	311
299.445	296
299.675	301
299.905	309
300.136	312
300.366	292
300.597	309
300.827	308
301.057	326
301.288	321
301.518	319
301.748	303
301.979	302
302.209	328
302.439	336
302.669	333
302.9	330
303.13	339
303.36	340
303.59	331
303.82	333
304.051	346
304.281	310
304.511	324
304.741	308
304.971	313
305.201	305
305.431	337
305.661	329
305.891	327
306.121	318
306.352	343
306.582	345
306.812	319
307.042	326
307.272	341
307.502	335
307.731	353
307.961	344
308.191	337
308.421	343
308.651	338
308.881	347
309.111	339
309.341	349
309.571	383
309.8	385
310.03	381
310.26	371
310.49	408
310.72	405
310.949	432
311.179	409
311.409	414
311.639	404
311.868	398
312.098	412
312.328	411
312.557	443
312.787	458
313.017	460
313.246	414
313.476	399
313.706	392
313.935	415
314.165	411
314.394	428
314.624	420
314.853	409
315.083	413
315.312	390
315.542	377
315.771	392
316.001	395
316.23	394
316.46	383
316.689	393
316.919	399
317.148	407
317.377	388
317.607	397
317.836	394
318.065	396
318.295	384
318.524	392
318.753	387
318.983	392
319.212	380
319.441	392
319.67	410
319.9	411
320.129	403
320.358	396
320.587	390
320.816	416
321.046	413
321.275	400
321.504	435
321.733	418
321.962	429
322.191	454
322.42	447
322.649	506
322.878	506
323.108	504
323.337	545
323.566	556
323.795	609
324.024	684
324.253	841
324.482	1189
324.71	1870
324.939	2626
325.168	2263
325.397	1203
325.626	807
325.855	681
326.084	579
326.313	571
326.542	577
326.77	631
326.999	727
327.228	1057
327.457	1667
327.686	1931
327.914	1355
328.143	881
328.372	781
328.6	694
328.829	659
329.058	697
329.287	669
329.515	618
329.744	603
329.972	579
330.201	615
330.43	681
330.658	705
330.887	735
331.115	711
331.344	600
331.572	556
331.801	543
332.03	542
332.258	520
332.486	513
332.715	486
332.943	490
333.172	468
333.4	484
333.629	483
333.857	496
334.085	515
334.314	554
334.542	607
334.771	627
334.999	551
335.227	511
335.455	474
335.684	473
335.912	457
336.14	460
336.369	455
336.597	482
336.825	473
337.053	447
337.281	451
337.51	458
337.738	456
337.966	451
338.194	464
338.422	460
338.65	448
338.878	451
339.106	444
339.334	455
339.562	460
339.79	440
340.018	460
340.246	459
340.474	469
340.702	447
340.93	441
341.158	440
341.386	451
341.614	444
341.842	438
342.07	441
342.298	425
342.526	451
342.754	433
342.981	438
343.209	428
343.437	416
343.665	428
343.893	439
344.12	440
344.348	433
344.576	431
344.804	459
345.031	466
345.259	485
345.487	475
345.714	452
345.942	460
346.17	442
346.397	438
346.625	445
346.853	453
347.08	455
347.308	448
347.535	457
347.763	466
347.99	467
348.218	453
348.445	462
348.673	478
348.9	452
349.128	452
349.355	418
349.583	444
349.81	401
350.037	409
350.265	421
350.492	409
350.72	435
350.947	425
351.174	452
351.402	472
351.629	462
351.856	450
352.083	447
352.311	461
352.538	476
352.765	477
352.992	479
353.22	453
353.447	451
353.674	441
353.901	440
354.128	410
354.355	423
354.583	409
354.81	409
355.037	425
355.264	429
355.491	397
355.718	417
355.945	411
356.172	392
356.399	416
356.626	389
356.853	428
357.08	414
357.307	397
357.534	412
357.761	406
357.988	401
358.215	397
358.441	407
358.668	410
358.895	444
359.122	424
359.349	439
359.576	452
359.802	483
360.029	507
360.256	530
360.483	510
360.709	472
360.936	458
361.163	443
361.39	478
361.616	476
361.843	468
362.07	460
362.296	467
362.523	457
362.749	452
362.976	443
363.203	427
363.429	423
363.656	448
363.882	420
364.109	427
364.335	442
364.562	417
364.788	431
365.015	446
365.241	429
365.468	423
365.694	434
365.92	443
366.147	420
366.373	434
366.599	427
366.826	417
367.052	423
367.278	425
367.505	427
367.731	406
367.957	425
368.184	413
368.41	428
368.636	449
368.862	468
369.089	433
369.315	431
369.541	438
369.767	433
369.993	432
370.219	403
370.445	413
370.672	421
370.898	418
371.124	420
371.35	422
371.576	439
371.802	426
372.028	415
372.254	450
372.48	434
372.706	407
372.932	414
373.158	427
373.384	419
373.61	413
373.835	441
374.061	406
374.287	427
374.513	408
374.739	424
374.965	412
375.191	421
375.416	439
375.642	406
375.868	419
376.094	422
376.319	432
376.545	427
376.771	415
376.997	427
377.222	418
377.448	410
377.674	397
377.899	400
378.125	421
378.35	427
378.576	405
378.802	401
379.027	422
379.253	415
379.478	413
379.704	409
379.929	425
380.155	428
380.38	428
380.606	412
380.831	417
381.057	410
381.282	410
381.507	413
381.733	410
381.958	425
382.184	436
382.409	436
382.634	420
382.86	409
383.085	437
383.31	441
383.535	440
383.761	423
383.986	432
384.211	426
384.436	435
384.662	425
384.887	451
385.112	447
385.337	455
385.562	447
385.787	457
386.013	452
386.238	479
386.463	457
386.688	458
386.913	447
387.138	435
387.363	458
387.588	448
387.813	467
388.038	463
388.263	447
388.488	452
388.713	464
388.938	458
389.163	457
389.387	463
389.612	456
389.837	453
390.062	451
390.287	456
390.512	434
390.736	443
390.961	431
391.186	442
391.411	445
391.636	465
391.86	464
392.085	444
392.31	456
392.534	452
392.759	469
392.984	467
393.208	461
393.433	459
393.658	452
393.882	471
394.107	451
394.331	475
394.556	475
394.78	456
395.005	474
395.229	454
395.454	469
395.678	473
395.903	479
396.127	526
396.352	512
396.576	474
396.801	457
397.025	463
397.249	474
397.474	477
397.698	488
397.922	492
398.147	503
398.371	531
398.595	502
398.82	516
399.044	501
399.268	522
399.492	547
399.717	556
399.941	585
400.165	635
400.389	626
400.613	603
400.837	559
401.062	532
401.286	531
401.51	533
401.734	529
401.958	526
402.182	526
402.406	525
402.63	545
402.854	523
403.078	522
403.302	535
403.526	522
403.75	526
403.974	551
404.198	520
404.422	577
404.645	555
404.869	568
405.093	603
405.317	651
405.541	662
405.765	616
405.988	593
406.212	593
406.436	631
406.66	639
406.883	599
407.107	621
407.331	649
407.555	731
407.778	741
408.002	661
408.226	612
408.449	587
408.673	624
408.896	640
409.12	668
409.344	650
409.567	575
409.791	551
410.014	566
410.238	546
410.461	539
410.685	570
410.908	559
411.132	620
411.355	649
411.578	621
411.802	587
412.025	536
412.249	537
412.472	592
412.695	633
412.919	629
413.142	572
413.365	550
413.589	564
413.812	545
414.035	504
414.258	511
414.482	525
414.705	516
414.928	493
415.151	519
415.374	521
415.597	517
415.821	514
416.044	518
416.267	536
416.49	520
416.713	514
416.936	529
417.159	521
417.382	513
417.605	544
417.828	544
418.051	562
418.274	563
418.497	546
418.72	521
418.943	528
419.166	531
419.389	586
419.611	565
419.834	551
420.057	575
420.28	581
420.503	548
420.726	555
420.948	572
421.171	604
421.394	640
421.617	571
421.839	544
422.062	547
422.285	588
422.507	650
422.73	733
422.953	689
423.175	600
423.398	591
423.621	600
423.843	589
424.066	613
424.288	637
424.511	641
424.733	687
424.956	773
425.178	742
425.401	733
425.623	774
425.846	657
426.068	625
426.291	602
426.513	637
426.735	628
426.958	674
427.18	768
427.402	907
427.625	1004
427.847	882
428.069	800
428.292	726
428.514	639
428.736	633
428.958	604
429.181	594
429.403	585
429.625	580
429.847	634
430.069	700
430.292	724
430.514	624
430.736	587
430.958	573
431.18	565
431.402	562
431.624	525
431.846	536
432.068	526
432.29	529
432.512	555
432.734	552
432.956	555
433.178	570
433.4	550
433.622	552
433.844	545
434.066	529
434.287	526
434.509	526
434.731	562
434.953	570
435.175	567
435.397	607
435.618	607
435.84	674
436.062	804
436.284	821
436.505	716
436.727	620
436.949	581
437.17	578
437.392	573
437.614	604
437.835	638
438.057	748
438.278	882
438.5	893
438.721	893
438.943	888
439.165	739
439.386	648
439.608	648
439.829	666
440.05	707
440.272	739
440.493	691
440.715	650
440.936	629
441.158	586
441.379	581
441.6	604
441.822	612
442.043	688
442.264	769
442.486	821
442.707	668
442.928	650
443.149	674
443.371	682
443.592	727
443.813	808
444.034	871
444.255	736
444.476	668
444.698	615
444.919	624
445.14	759
445.361	716
445.582	683
445.803	739
446.024	869
446.245	872
446.466	795
446.687	711
446.908	619
447.129	615
447.35	598
447.571	581
447.792	572
448.013	593
448.234	639
448.455	665
448.675	794
448.896	891
449.117	772
449.338	717
449.559	854
449.779	938
450	781
450.221	649
450.442	608
450.662	591
450.883	601
451.104	605
451.324	574
451.545	569
451.766	532
451.986	525
452.207	495
452.428	563
452.648	542
452.869	529
453.089	540
453.31	554
453.53	505
453.751	520
453.971	539
454.192	570
454.412	551
454.633	538
454.853	518
455.073	532
455.294	560
455.514	624
455.734	627
455.955	507
456.175	496
456.395	495
456.616	492
456.836	515
457.056	481
457.276	460
457.497	499
457.717	490
457.937	478
458.157	508
458.377	472
458.598	522
458.818	618
459.038	732
459.258	724
459.478	613
459.698	568
459.918	532
460.138	515
460.358	535
460.578	529
460.798	531
461.018	540
461.238	506
461.458	517
461.678	517
461.898	517
462.118	528
462.338	519
462.558	529
462.777	544
462.997	554
463.217	565
463.437	561
463.657	535
463.876	552
464.096	546
464.316	559
464.536	560
464.755	571
464.975	579
465.195	647
465.414	743
465.634	659
465.854	610
466.073	574
466.293	540
466.512	511
466.732	513
466.951	535
467.171	545
467.391	525
467.61	560
467.829	548
468.049	563
468.268	551
468.488	525
468.707	522
468.927	526
469.146	508
469.365	534
469.585	515
469.804	511
470.023	560
470.243	519
470.462	523
470.681	563
470.901	588
471.12	528
471.339	527
471.558	522
471.777	543
471.997	543
472.216	538
472.435	593
472.654	597
472.873	535
473.092	540
473.311	553
473.53	519
473.749	561
473.968	612
474.187	715
474.406	739
474.625	603
474.844	548
475.063	524
475.282	564
475.501	554
475.72	555
475.939	561
476.158	579
476.377	565
476.596	561
476.814	584
477.033	582
477.252	568
477.471	573
477.69	581
477.908	577
478.127	592
478.346	586
478.564	607
478.783	601
479.002	609
479.22	605
479.439	629
479.658	651
479.876	664
480.095	680
480.313	700
480.532	671
480.751	683
480.969	685
481.188	778
481.406	867
481.624	743
481.843	693
482.061	668
482.28	677
482.498	646
482.717	648
482.935	637
483.153	625
483.372	624
483.59	643
483.808	660
484.027	639
484.245	668
484.463	665
484.681	641
484.9	661
485.118	644
485.336	667
485.554	647
485.772	669
485.99	663
486.209	688
486.427	688
486.645	682
486.863	727
487.081	729
487.299	705
487.517	698
487.735	693
487.953	712
488.171	697
488.389	724
488.607	722
488.825	699
489.043	711
489.261	724
489.479	730
489.696	697
489.914	716
490.132	715
490.35	740
490.568	738
490.786	761
491.003	791
491.221	814
491.439	835
491.657	816
491.874	808
492.092	808
492.31	823
492.527	849
492.745	825
492.963	834
493.18	842
493.398	831
493.615	864
493.833	861
494.05	876
494.268	858
494.485	866
494.703	848
494.92	848
495.138	851
495.355	847
495.573	897
495.79	831
496.008	848
496.225	845
496.442	834
496.66	868
496.877	840
497.094	848
497.312	864
497.529	850
497.746	885
497.963	876
498.181	886
498.398	868
498.615	909
498.832	891
499.049	933
499.267	947
499.484	934
499.701	953
499.918	985
500.135	1005
500.352	1038
500.569	1036
500.786	1046
501.003	1026
501.22	1029
501.437	1013
501.654	1000
501.871	1027
502.088	990
502.305	940
502.522	898
502.739	909
502.956	898
503.172	895
503.389	879
503.606	873
503.823	883
504.04	863
504.256	855
504.473	832
504.69	807
504.907	827
505.123	843
505.34	820
505.557	808
505.773	835
505.99	804
506.207	809
506.423	819
506.64	824
506.856	789
507.073	781
507.289	781
507.506	780
507.722	821
507.939	849
508.155	828
508.372	811
508.588	803
508.805	812
509.021	799
509.238	802
509.454	795
509.67	803
509.887	785
510.103	789
510.319	831
510.536	921
510.752	1583
510.968	1304
511.184	831
511.401	804
511.617	759
511.833	769
512.049	731
512.265	743
512.481	754
512.698	747
512.914	747
513.13	739
513.346	747
513.562	753
513.778	746
513.994	768
514.21	799
514.426	835
514.642	897
514.858	944
515.074	981
515.29	1192
515.506	1796
515.721	1415
515.937	941
516.153	889
516.369	821
516.585	788
516.801	773
517.016	748
517.232	751
517.448	740
517.664	749
517.879	738
518.095	727
518.311	738
518.527	770
518.742	735
518.958	728
519.173	744
519.389	740
519.605	749
519.82	723
520.036	801
520.251	834
520.467	862
520.682	856
520.898	853
521.113	872
521.329	965
521.544	1094
521.76	1416
521.975	2368
522.19	2315
522.406	1253
522.621	915
522.836	811
523.052	776
523.267	754
523.482	721
523.698	689
523.913	674
524.128	708
524.343	687
524.559	649
524.774	657
524.989	654
525.204	653
525.419	668
525.634	639
525.849	659
526.064	615
526.28	636
526.495	612
526.71	592
526.925	611
527.14	618
527.355	575
527.57	589
527.785	600
527.999	594
528.214	600
528.429	580
528.644	582
528.859	603
529.074	596
529.289	621
529.503	744
529.718	700
529.933	659
530.148	607
530.363	622
530.577	616
530.792	593
531.007	585
531.221	569
531.436	566
531.651	585
531.865	562
532.08	561
532.295	572
532.509	552
532.724	539
532.938	556
533.153	559
533.367	543
533.582	567
533.796	548
534.011	564
534.225	537
534.44	556
534.654	553
534.868	549
535.083	543
535.297	553
535.511	557
535.726	579
535.94	584
536.154	574
536.369	528
536.583	536
536.797	542
537.011	550
537.225	529
537.44	535
537.654	529
537.868	536
538.082	525
538.296	543
538.51	532
538.724	534
538.938	544
539.153	543
539.367	562
539.581	565
539.795	543
540.009	524
540.222	507
540.436	540
540.65	538
540.864	542
541.078	542
541.292	538
541.506	569
541.72	517
541.934	545
542.147	534
542.361	533
542.575	529
542.789	529
543.002	543
543.216	516
543.43	563
543.644	539
543.857	498
544.071	547
544.285	529
544.498	522
544.712	529
544.925	525
545.139	518
545.352	521
545.566	511
545.779	504
545.993	532
546.206	514
546.42	514
546.633	500
546.847	514
547.06	500
547.274	490
547.487	505
547.7	513
547.914	471
548.127	491
548.34	510
548.554	517
548.767	500
548.98	492
549.193	497
549.407	493
549.62	488
549.833	496
550.046	501
550.259	498
550.473	485
550.686	493
550.899	490
551.112	508
551.325	470
551.538	486
551.751	502
551.964	476
552.177	484
552.39	500
552.603	519
552.816	477
553.029	465
553.242	491
553.455	521
553.667	522
553.88	518
554.093	512
554.306	504
554.519	486
554.732	483
554.944	481
555.157	464
555.37	488
555.583	469
555.795	457
556.008	483
556.221	458
556.433	457
556.646	456
556.859	461
557.071	474
557.284	460
557.496	453
557.709	455
557.921	469
558.134	441
558.346	435
558.559	433
558.771	465
558.984	425
559.196	454
559.409	441
559.621	426
559.833	446
560.046	442
560.258	427
560.47	451
560.683	417
560.895	437
561.107	439
561.32	435
561.532	434
561.744	451
561.956	424
562.168	447
562.381	465
562.593	447
562.805	444
563.017	454
563.229	433
563.441	424
563.653	456
563.865	447
564.077	448
564.289	441
564.501	438
564.713	435
564.925	453
565.137	458
565.349	477
565.561	481
565.773	461
565.985	473
566.197	460
566.408	480
566.62	476
566.832	481
567.044	490
567.255	497
567.467	495
567.679	500
567.891	504
568.102	498
568.314	482
568.526	484
568.737	473
568.949	447
569.161	439
569.372	436
569.584	423
569.795	435
570.007	450
570.218	498
570.43	492
570.641	423
570.853	419
571.064	412
571.276	394
571.487	392
571.698	406
571.91	407
572.121	419
572.333	407
572.544	386
572.755	391
572.966	401
573.178	383
573.389	379
573.6	392
573.811	395
574.023	385
574.234	376
574.445	370
574.656	374
574.867	375
575.078	355
575.289	385
575.501	385
575.712	380
575.923	374
576.134	364
576.345	383
576.556	355
576.767	372
576.978	373
577.188	370
577.399	374
577.61	365
577.821	371
578.032	355
578.243	427
578.454	743
578.665	546
578.875	375
579.086	370
579.297	347
579.508	357
579.718	372
579.929	343
580.14	337
580.35	326
580.561	337
580.772	343
580.982	346
581.193	363
581.403	357
581.614	346
581.825	330
582.035	333
582.246	344
582.456	348
582.667	335
582.877	337
583.087	337
583.298	340
583.508	346
583.719	341
583.929	332
584.139	340
584.35	336
584.56	326
584.77	336
584.981	351
585.191	338
585.401	333
585.611	337
585.821	322
586.032	331
586.242	346
586.452	341
586.662	304
586.872	309
587.082	345
587.292	323
587.502	326
587.713	342
587.923	318
588.133	322
588.343	331
588.553	299
588.762	320
588.972	330
589.182	320
589.392	327
589.602	343
589.812	320
590.022	321
590.232	315
590.441	297
590.651	330
590.861	343
591.071	344
591.281	324
591.49	318
591.7	319
591.91	334
592.119	306
592.329	321
592.539	330
592.748	335
592.958	320
593.167	322
593.377	328
593.587	359
593.796	327
594.006	324
594.215	324
594.424	340
594.634	310
594.843	339
595.053	327
595.262	321
595.472	325
595.681	316
595.89	317
596.1	321
596.309	309
596.518	314
596.727	303
596.937	303
597.146	306
597.355	301
597.564	298
597.774	291
597.983	300
598.192	287
598.401	283
598.61	304
598.819	294
599.028	291
599.237	289
599.446	276
599.655	296
599.864	294
600.073	301
600.282	305
600.491	295
600.7	283
600.909	293
601.118	293
601.327	280
601.536	274
601.745	290
601.953	280
602.162	285
602.371	295
602.58	268
602.789	294
602.997	296
603.206	293
603.415	291
603.623	274
603.832	288
604.041	289
604.249	282
604.458	280
604.666	267
604.875	268
605.084	264
605.292	262
605.501	265
605.709	261
605.918	267
606.126	267
606.334	265
606.543	268
606.751	263
606.96	265
607.168	261
607.376	272
607.585	267
607.793	273
608.001	281
608.21	264
608.418	258
608.626	270
608.834	276
609.043	283
609.251	269
609.459	251
609.667	265
609.875	244
610.083	271
610.291	259
610.499	268
610.707	244
610.916	252
611.124	279
611.332	262
611.54	273
611.748	268
611.955	273
612.163	259
612.371	260
612.579	277
612.787	272
612.995	260
613.203	259
613.411	265
613.618	265
613.826	263
614.034	280
614.242	277
614.449	249
614.657	253
614.865	265
615.072	274
615.28	252
615.488	255
615.695	259
615.903	250
616.111	233
616.318	277
616.526	291
616.733	246
616.941	263
617.148	245
617.356	255
617.563	260
617.771	257
617.978	250
618.185	260
618.393	235
618.6	253
618.807	252
619.015	252
619.222	246
619.429	239
619.637	256
619.844	235
620.051	251
620.258	252
620.466	248
620.673	228
620.88	260
621.087	245
621.294	242
621.501	240
621.708	242
621.915	245
622.122	229
622.329	245
622.536	263
622.743	250
622.95	265
623.157	235
623.364	243
623.571	242
623.778	252
623.985	239
624.192	241
624.399	206
624.606	244
624.812	226
625.019	238
625.226	243
625.433	244
625.639	235
625.846	228
626.053	236
626.259	231
626.466	229
626.673	236
626.879	218
627.086	215
627.293	232
627.499	234
627.706	245
627.912	239
628.119	212
628.325	221
628.532	233
628.738	198
628.945	213
629.151	219
629.357	216
629.564	231
629.77	205
629.976	207
630.183	219
630.389	198
630.595	194
630.802	216
631.008	218
631.214	209
631.42	205
631.627	224
631.833	209
632.039	203
632.245	204
632.451	200
632.657	219
632.863	197
633.069	196
633.275	199
633.481	201
633.688	208
633.893	193
634.099	195
634.305	204
634.511	197
634.717	188
634.923	187
635.129	192
635.335	197
635.541	207
635.747	187
635.952	208
636.158	211
636.364	197
636.57	212
636.775	195
636.981	209
637.187	212
637.392	196
637.598	185
637.804	194
638.009	191
638.215	180
638.421	187
638.626	167
638.832	191
639.037	197
639.243	202
639.448	169
639.654	180
639.859	185
640.065	190
640.27	188
640.475	185
640.681	176
640.886	196
641.091	211
641.297	202
641.502	166
641.707	178
641.913	183
642.118	196
642.323	177
642.528	188
642.733	168
642.939	187
643.144	179
643.349	179
643.554	176
643.759	185
643.964	153
644.169	170
644.374	175
644.579	175
644.784	185
644.989	193
645.194	187
645.399	172
645.604	166
645.809	170
646.014	161
646.219	179
646.423	167
646.628	164
646.833	180
647.038	159
647.243	191
647.447	187
647.652	170
647.857	165
648.062	185
648.266	163
648.471	191
648.676	183
648.88	182
649.085	187
649.289	184
649.494	174
649.698	182
649.903	197
650.107	165
650.312	172
650.516	170
650.721	173
650.925	156
651.13	160
651.334	152
651.539	167
651.743	159
651.947	147
652.152	148
652.356	155
652.56	146
652.764	155
652.969	146
653.173	145
653.377	156
653.581	157
653.785	145
653.99	151
654.194	128
654.398	145
654.602	137
654.806	145
655.01	141
655.214	134
655.418	143
655.622	129
655.826	147
656.03	127
656.234	128
656.438	127
656.642	150
656.846	127
657.049	140
657.253	130
657.457	120
657.661	127
657.865	113
658.068	121
658.272	99
658.476	120
658.68	105
658.883	100
659.087	105
659.291	102
659.494	111
659.698	101
659.901	120
660.105	91
660.309	99
660.512	83
660.716	95
660.919	77
661.123	100
661.326	83
661.53	85
661.733	87
661.936	87
662.14	83
662.343	84
662.546	88
662.75	81
662.953	81
663.156	96
663.36	88
663.563	81
663.766	78
663.969	83
664.173	64
664.376	83
664.579	73
664.782	84
664.985	88
665.188	91
665.391	77
665.594	60
665.797	79
666	78
666.203	100
666.406	78
666.609	72
666.812	81
667.015	72
667.218	70
667.421	60
667.624	82
667.827	79
668.03	79
668.232	75
668.435	90
668.638	75
668.841	78
669.043	80
669.246	81
669.449	84
669.651	84
669.854	75
670.057	90
670.259	73
670.462	72
670.665	82
670.867	92
671.07	74
671.272	77
671.475	84
671.677	87
671.88	83
672.082	76
672.284	82
672.487	80
672.689	84
672.892	91
