Data from 1970.PennyLincolnUp.Lamp.En5.5.200Scan.071719.P1._HRD10591_15-13-20-843.txt Node
Date: Thu Jul 18 15:13:20 EDT 2019
User: cochatt
Spectrometer: HR+D1059
Trigger mode: 1
Integration Time (sec): 1.000000E-1
Scans to average: 1
Electric dark correction enabled: true
Nonlinearity correction enabled: false
Boxcar width: 0
XAxis mode: Wavelengths
Number of Pixels in Spectrum: 2048
>>>>>Begin Spectral Data<<<<<
223.165	-10
223.4	-10
223.635	-10
223.869	-21
224.104	-18
224.338	-20
224.573	-8
224.808	-20
225.042	-12
225.277	-13
225.511	19
225.746	-6
225.98	11
226.215	-4
226.449	17
226.683	24
226.918	32
227.152	29
227.387	29
227.621	45
227.856	17
228.09	42
228.324	62
228.559	56
228.793	69
229.027	92
229.262	114
229.496	117
229.73	120
229.964	135
230.199	123
230.433	121
230.667	106
230.901	114
231.136	110
231.37	115
231.604	98
231.838	101
232.072	111
232.306	100
232.541	106
232.775	120
233.009	102
233.243	116
233.477	106
233.711	122
233.945	118
234.179	122
234.413	116
234.647	107
234.881	118
235.115	116
235.349	123
235.583	108
235.817	109
236.051	118
236.285	118
236.519	117
236.753	117
236.987	137
237.221	168
237.455	227
237.689	169
237.922	138
238.156	134
238.39	110
238.624	126
238.858	123
239.091	122
239.325	130
239.559	114
239.793	129
240.027	132
240.26	143
240.494	150
240.728	146
240.961	158
241.195	135
241.429	143
241.662	133
241.896	122
242.13	130
242.363	116
242.597	133
242.83	144
243.064	145
243.298	142
243.531	132
243.765	142
243.998	148
244.232	132
244.465	134
244.699	150
244.932	146
245.166	163
245.399	144
245.633	136
245.866	137
246.099	144
246.333	150
246.566	147
246.8	146
247.033	152
247.266	152
247.5	165
247.733	154
247.966	174
248.2	171
248.433	170
248.666	164
248.899	189
249.133	186
249.366	201
249.599	195
249.832	196
250.066	178
250.299	187
250.532	204
250.765	194
250.998	209
251.231	210
251.465	210
251.698	193
251.931	210
252.164	200
252.397	183
252.63	191
252.863	212
253.096	201
253.329	226
253.562	228
253.795	223
254.028	219
254.261	220
254.494	221
254.727	242
254.96	264
255.193	248
255.426	236
255.659	229
255.892	216
256.124	224
256.357	219
256.59	227
256.823	197
257.056	212
257.289	218
257.521	223
257.754	209
257.987	223
258.22	198
258.452	200
258.685	223
258.918	208
259.151	195
259.383	223
259.616	208
259.849	212
260.081	235
260.314	230
260.547	231
260.779	242
261.012	231
261.244	222
261.477	211
261.71	215
261.942	212
262.175	225
262.407	212
262.64	189
262.872	192
263.105	196
263.337	200
263.57	200
263.802	187
264.035	195
264.267	211
264.499	202
264.732	210
264.964	194
265.197	193
265.429	200
265.661	205
265.894	212
266.126	212
266.358	181
266.591	200
266.823	201
267.055	200
267.287	188
267.52	202
267.752	224
267.984	198
268.216	200
268.448	209
268.681	213
268.913	204
269.145	238
269.377	231
269.609	250
269.841	244
270.073	246
270.306	265
270.538	274
270.77	273
271.002	287
271.234	286
271.466	244
271.698	283
271.93	294
272.162	294
272.394	279
272.626	255
272.858	274
273.09	266
273.322	246
273.553	234
273.785	228
274.017	225
274.249	239
274.481	251
274.713	239
274.945	254
275.176	256
275.408	249
275.64	228
275.872	237
276.104	228
276.335	227
276.567	222
276.799	250
277.031	276
277.262	273
277.494	284
277.726	269
277.957	246
278.189	240
278.421	253
278.652	234
278.884	252
279.115	231
279.347	245
279.579	234
279.81	231
280.042	225
280.273	243
280.505	226
280.736	246
280.968	240
281.199	229
281.431	231
281.662	235
281.894	225
282.125	239
282.356	269
282.588	259
282.819	279
283.051	231
283.282	229
283.513	234
283.745	239
283.976	243
284.207	238
284.439	233
284.67	240
284.901	233
285.132	243
285.364	253
285.595	245
285.826	242
286.057	248
286.288	244
286.52	243
286.751	240
286.982	245
287.213	246
287.444	261
287.675	248
287.906	250
288.138	269
288.369	265
288.6	254
288.831	261
289.062	253
289.293	266
289.524	256
289.755	269
289.986	249
290.217	261
290.448	245
290.679	229
290.91	259
291.141	252
291.371	232
291.602	229
291.833	237
292.064	273
292.295	258
292.526	245
292.757	236
292.987	258
293.218	250
293.449	269
293.68	270
293.91	250
294.141	269
294.372	259
294.603	231
294.833	265
295.064	244
295.295	266
295.525	255
295.756	260
295.987	268
296.217	280
296.448	290
296.679	257
296.909	263
297.14	280
297.37	266
297.601	254
297.831	255
298.062	271
298.292	249
298.523	268
298.753	278
298.984	254
299.214	270
299.445	267
299.675	263
299.905	264
300.136	260
300.366	263
300.597	268
300.827	265
301.057	272
301.288	282
301.518	286
301.748	268
301.979	290
302.209	267
302.439	283
302.669	279
302.9	270
303.13	277
303.36	296
303.59	295
303.82	293
304.051	289
304.281	296
304.511	288
304.741	285
304.971	285
305.201	283
305.431	276
305.661	284
305.891	262
306.121	267
306.352	287
306.582	303
306.812	280
307.042	289
307.272	287
307.502	292
307.731	290
307.961	290
308.191	282
308.421	303
308.651	299
308.881	283
309.111	291
309.341	299
309.571	317
309.8	301
310.03	302
310.26	323
310.49	324
310.72	316
310.949	343
311.179	344
311.409	321
311.639	328
311.868	333
312.098	330
312.328	324
312.557	340
312.787	354
313.017	347
313.246	341
313.476	334
313.706	332
313.935	327
314.165	348
314.394	351
314.624	351
314.853	323
315.083	335
315.312	318
315.542	323
315.771	322
316.001	334
316.23	342
316.46	316
316.689	342
316.919	298
317.148	336
317.377	342
317.607	343
317.836	331
318.065	318
318.295	325
318.524	304
318.753	356
318.983	317
319.212	306
319.441	332
319.67	349
319.9	336
320.129	320
320.358	344
320.587	322
320.816	341
321.046	363
321.275	352
321.504	344
321.733	341
321.962	367
322.191	357
322.42	380
322.649	390
322.878	406
323.108	389
323.337	405
323.566	431
323.795	458
324.024	481
324.253	585
324.482	817
324.71	1207
324.939	1764
325.168	1533
325.397	815
325.626	549
325.855	474
326.084	458
326.313	456
326.542	450
326.77	490
326.999	575
327.228	727
327.457	1088
327.686	1330
327.914	896
328.143	600
328.372	548
328.6	510
328.829	484
329.058	511
329.287	493
329.515	487
329.744	432
329.972	439
330.201	453
330.43	473
330.658	511
330.887	520
331.115	491
331.344	456
331.572	452
331.801	440
332.03	427
332.258	407
332.486	399
332.715	389
332.943	380
333.172	390
333.4	378
333.629	392
333.857	420
334.085	413
334.314	417
334.542	442
334.771	458
334.999	427
335.227	425
335.455	418
335.684	390
335.912	403
336.14	399
336.369	394
336.597	396
336.825	407
337.053	392
337.281	386
337.51	403
337.738	383
337.966	373
338.194	386
338.422	383
338.65	386
338.878	382
339.106	381
339.334	398
339.562	381
339.79	371
340.018	373
340.246	375
340.474	374
340.702	396
340.93	370
341.158	366
341.386	358
341.614	381
341.842	380
342.07	369
342.298	379
342.526	349
342.754	367
342.981	371
343.209	372
343.437	362
343.665	379
343.893	388
344.12	403
344.348	378
344.576	386
344.804	387
345.031	392
345.259	411
345.487	390
345.714	375
345.942	378
346.17	381
346.397	343
346.625	371
346.853	390
347.08	373
347.308	378
347.535	386
347.763	383
347.99	404
348.218	388
348.445	386
348.673	381
348.9	390
349.128	373
349.355	360
349.583	358
349.81	350
350.037	368
350.265	354
350.492	359
350.72	370
350.947	370
351.174	377
351.402	372
351.629	354
351.856	386
352.083	383
352.311	391
352.538	392
352.765	374
352.992	376
353.22	383
353.447	370
353.674	376
353.901	350
354.128	353
354.355	343
354.583	349
354.81	357
355.037	363
355.264	361
355.491	354
355.718	347
355.945	336
356.172	340
356.399	364
356.626	354
356.853	349
357.08	348
357.307	361
357.534	343
357.761	361
357.988	352
358.215	356
358.441	340
358.668	367
358.895	359
359.122	354
359.349	354
359.576	369
359.802	397
360.029	421
360.256	429
360.483	418
360.709	379
360.936	374
361.163	365
361.39	392
361.616	388
361.843	371
362.07	387
362.296	395
362.523	391
362.749	390
362.976	362
363.203	360
363.429	377
363.656	372
363.882	355
364.109	378
364.335	357
364.562	354
364.788	363
365.015	354
365.241	367
365.468	373
365.694	376
365.92	379
366.147	378
366.373	378
366.599	364
366.826	376
367.052	350
367.278	363
367.505	374
367.731	369
367.957	373
368.184	378
368.41	388
368.636	384
368.862	390
369.089	388
369.315	374
369.541	381
369.767	372
369.993	375
370.219	375
370.445	379
370.672	359
370.898	372
371.124	371
371.35	362
371.576	360
371.802	349
372.028	365
372.254	364
372.48	378
372.706	379
372.932	379
373.158	371
373.384	376
373.61	388
373.835	383
374.061	363
374.287	390
374.513	376
374.739	390
374.965	371
375.191	372
375.416	384
375.642	371
375.868	375
376.094	389
376.319	371
376.545	344
376.771	386
376.997	384
377.222	393
377.448	378
377.674	361
377.899	376
378.125	372
378.35	372
378.576	366
378.802	376
379.027	362
379.253	377
379.478	390
379.704	366
379.929	386
380.155	382
380.38	388
380.606	388
380.831	369
381.057	394
381.282	392
381.507	374
381.733	402
381.958	389
382.184	388
382.409	381
382.634	388
382.86	389
383.085	391
383.31	391
383.535	405
383.761	371
383.986	396
384.211	375
384.436	379
384.662	408
384.887	386
385.112	408
385.337	422
385.562	394
385.787	397
386.013	447
386.238	428
386.463	423
386.688	411
386.913	409
387.138	399
387.363	397
387.588	395
387.813	404
388.038	406
388.263	403
388.488	406
388.713	405
388.938	414
389.163	412
389.387	403
389.612	421
389.837	413
390.062	407
390.287	426
390.512	420
390.736	407
390.961	395
391.186	406
391.411	421
391.636	402
391.86	414
392.085	422
392.31	424
392.534	427
392.759	427
392.984	419
393.208	448
393.433	430
393.658	453
393.882	411
394.107	423
394.331	420
394.556	386
394.78	397
395.005	400
395.229	381
395.454	421
395.678	440
395.903	434
396.127	455
396.352	445
396.576	445
396.801	438
397.025	425
397.249	438
397.474	436
397.698	447
397.922	460
398.147	460
398.371	454
398.595	460
398.82	449
399.044	447
399.268	471
399.492	496
399.717	521
399.941	518
400.165	566
400.389	565
400.613	538
400.837	511
401.062	477
401.286	471
401.51	485
401.734	450
401.958	464
402.182	448
402.406	474
402.63	483
402.854	471
403.078	473
403.302	475
403.526	486
403.75	487
403.974	486
404.198	499
404.422	492
404.645	491
404.869	510
405.093	503
405.317	543
405.541	583
405.765	539
405.988	540
406.212	525
406.436	522
406.66	537
406.883	526
407.107	556
407.331	577
407.555	637
407.778	639
408.002	581
408.226	584
408.449	521
408.673	527
408.896	573
409.12	588
409.344	564
409.567	524
409.791	486
410.014	479
410.238	493
410.461	517
410.685	505
410.908	512
411.132	535
411.355	546
411.578	555
411.802	505
412.025	488
412.249	516
412.472	504
412.695	559
412.919	537
413.142	504
413.365	489
413.589	498
413.812	495
414.035	477
414.258	463
414.482	456
414.705	480
414.928	449
415.151	454
415.374	459
415.597	448
415.821	443
416.044	464
416.267	457
416.49	463
416.713	459
416.936	461
417.159	464
417.382	491
417.605	480
417.828	481
418.051	496
418.274	476
418.497	486
418.72	484
418.943	454
419.166	499
419.389	489
419.611	517
419.834	507
420.057	511
420.28	485
420.503	467
420.726	484
420.948	500
421.171	540
421.394	568
421.617	534
421.839	479
422.062	492
422.285	493
422.507	554
422.73	616
422.953	634
423.175	542
423.398	515
423.621	499
423.843	515
424.066	526
424.288	530
424.511	542
424.733	592
424.956	640
425.178	672
425.401	627
425.623	636
425.846	594
426.068	538
426.291	548
426.513	535
426.735	554
426.958	590
427.18	650
427.402	742
427.625	850
427.847	760
428.069	666
428.292	587
428.514	566
428.736	551
428.958	509
429.181	511
429.403	508
429.625	490
429.847	540
430.069	602
430.292	607
430.514	528
430.736	510
430.958	484
431.18	469
431.402	476
431.624	477
431.846	480
432.068	465
432.29	478
432.512	471
432.734	478
432.956	474
433.178	480
433.4	472
433.622	484
433.844	482
434.066	464
434.287	477
434.509	488
434.731	482
434.953	470
435.175	502
435.397	549
435.618	528
435.84	592
436.062	644
436.284	725
436.505	622
436.727	546
436.949	525
437.17	512
437.392	508
437.614	522
437.835	546
438.057	638
438.278	718
438.5	734
438.721	760
438.943	766
439.165	615
439.386	550
439.608	554
439.829	534
440.05	568
440.272	587
440.493	574
440.715	558
440.936	529
441.158	523
441.379	502
441.6	523
441.822	528
442.043	565
442.264	664
442.486	683
442.707	595
442.928	564
443.149	584
443.371	578
443.592	630
443.813	674
444.034	742
444.255	629
444.476	567
444.698	560
444.919	532
445.14	626
445.361	598
445.582	567
445.803	631
446.024	699
446.245	719
446.466	658
446.687	601
446.908	566
447.129	534
447.35	509
447.571	484
447.792	522
448.013	509
448.234	546
448.455	566
448.675	666
448.896	785
449.117	667
449.338	624
449.559	735
449.779	809
450	638
450.221	562
450.442	500
450.662	480
450.883	509
451.104	519
451.324	508
451.545	494
451.766	476
451.986	458
452.207	462
452.428	445
452.648	460
452.869	456
453.089	446
453.31	476
453.53	472
453.751	447
453.971	454
454.192	462
454.412	451
454.633	452
454.853	463
455.073	467
455.294	465
455.514	535
455.734	516
455.955	449
456.175	431
456.395	427
456.616	420
456.836	416
457.056	435
457.276	419
457.497	430
457.717	399
457.937	420
458.157	414
458.377	425
458.598	466
458.818	521
459.038	592
459.258	614
459.478	516
459.698	468
459.918	470
460.138	468
460.358	482
460.578	477
460.798	479
461.018	492
461.238	483
461.458	487
461.678	474
461.898	466
462.118	488
462.338	484
462.558	488
462.777	501
462.997	491
463.217	495
463.437	520
463.657	509
463.876	508
464.096	511
464.316	508
464.536	520
464.755	512
464.975	526
465.195	538
465.414	603
465.634	551
465.854	518
466.073	485
466.293	482
466.512	457
466.732	458
466.951	450
467.171	460
467.391	457
467.61	462
467.829	479
468.049	459
468.268	475
468.488	471
468.707	469
468.927	483
469.146	456
469.365	438
469.585	455
469.804	476
470.023	481
470.243	472
470.462	485
470.681	484
470.901	486
471.12	466
471.339	477
471.558	485
471.777	464
471.997	474
472.216	449
472.435	484
472.654	474
472.873	460
473.092	478
473.311	459
473.53	452
473.749	457
473.968	494
474.187	588
474.406	619
474.625	519
474.844	474
475.063	472
475.282	482
475.501	480
475.72	484
475.939	479
476.158	496
476.377	491
476.596	472
476.814	491
477.033	480
477.252	511
477.471	484
477.69	510
477.908	489
478.127	527
478.346	526
478.564	501
478.783	551
479.002	526
479.22	534
479.439	532
479.658	565
479.876	570
480.095	544
480.313	608
480.532	585
480.751	587
480.969	568
481.188	613
481.406	657
481.624	600
481.843	584
482.061	547
482.28	572
482.498	542
482.717	566
482.935	550
483.153	564
483.372	584
483.59	548
483.808	570
484.027	573
484.245	550
484.463	587
484.681	578
484.9	552
485.118	577
485.336	572
485.554	582
485.772	562
485.99	575
486.209	583
486.427	597
486.645	592
486.863	606
487.081	592
487.299	624
487.517	581
487.735	604
487.953	606
488.171	631
488.389	619
488.607	598
488.825	606
489.043	602
489.261	597
489.479	637
489.696	618
489.914	609
490.132	631
490.35	632
490.568	650
490.786	655
491.003	644
491.221	667
491.439	693
491.657	681
491.874	686
492.092	704
492.31	719
492.527	711
492.745	695
492.963	742
493.18	712
493.398	713
493.615	732
493.833	715
494.05	706
494.268	749
494.485	723
494.703	724
494.92	730
495.138	742
495.355	737
495.573	751
495.79	741
496.008	709
496.225	720
496.442	746
496.66	740
496.877	743
497.094	730
497.312	734
497.529	745
497.746	765
497.963	759
498.181	802
498.398	765
498.615	789
498.832	795
499.049	837
499.267	843
499.484	824
499.701	837
499.918	862
500.135	910
500.352	920
500.569	934
500.786	946
501.003	950
501.22	903
501.437	912
501.654	884
501.871	874
502.088	877
502.305	838
502.522	813
502.739	799
502.956	767
503.172	767
503.389	784
503.606	770
503.823	725
504.04	757
504.256	744
504.473	735
504.69	733
504.907	716
505.123	704
505.34	718
505.557	711
505.773	690
505.99	712
506.207	678
506.423	694
506.64	684
506.856	690
507.073	664
507.289	702
507.506	660
507.722	689
507.939	703
508.155	662
508.372	677
508.588	665
508.805	638
509.021	668
509.238	672
509.454	672
509.67	674
509.887	650
510.103	640
510.319	659
510.536	745
510.752	1184
510.968	993
511.184	687
511.401	657
511.617	644
511.833	644
512.049	638
512.265	623
512.481	642
512.698	634
512.914	639
513.13	631
513.346	606
513.562	632
513.778	645
513.994	649
514.21	664
514.426	643
514.642	702
514.858	717
515.074	752
515.29	867
515.506	1238
515.721	1045
515.937	716
516.153	694
516.369	650
516.585	646
516.801	635
517.016	628
517.232	644
517.448	622
517.664	635
517.879	627
518.095	626
518.311	616
518.527	642
518.742	622
518.958	629
519.173	621
519.389	639
519.605	615
519.82	638
520.036	636
520.251	643
520.467	673
520.682	659
520.898	661
521.113	679
521.329	715
521.544	816
521.76	1012
521.975	1559
522.19	1594
522.406	906
522.621	688
522.836	638
523.052	619
523.267	592
523.482	578
523.698	574
523.913	595
524.128	570
524.343	571
524.559	562
524.774	546
524.989	550
525.204	556
525.419	561
525.634	533
525.849	515
526.064	542
526.28	537
526.495	530
526.71	520
526.925	500
527.14	515
527.355	514
527.57	520
527.785	516
527.999	517
528.214	499
528.429	529
528.644	488
528.859	506
529.074	523
529.289	546
529.503	596
529.718	617
529.933	523
530.148	520
530.363	514
530.577	518
530.792	512
531.007	501
531.221	520
531.436	500
531.651	495
531.865	482
532.08	493
532.295	494
532.509	491
532.724	502
532.938	488
533.153	479
533.367	485
533.582	470
533.796	485
534.011	500
534.225	480
534.44	477
534.654	479
534.868	489
535.083	502
535.297	487
535.511	485
535.726	494
535.94	484
536.154	477
536.369	490
536.583	455
536.797	472
537.011	469
537.225	462
537.44	469
537.654	477
537.868	487
538.082	472
538.296	446
538.51	456
538.724	484
538.938	480
539.153	462
539.367	492
539.581	491
539.795	465
540.009	458
540.222	486
540.436	473
540.65	472
540.864	500
541.078	478
541.292	473
541.506	477
541.72	471
541.934	495
542.147	493
542.361	481
542.575	462
542.789	478
543.002	473
543.216	479
543.43	464
543.644	473
543.857	465
544.071	451
544.285	471
544.498	472
544.712	472
544.925	499
545.139	468
545.352	449
545.566	470
545.779	442
545.993	454
546.206	463
546.42	466
546.633	470
546.847	446
547.06	453
547.274	468
547.487	452
547.7	452
547.914	458
548.127	461
548.34	453
548.554	470
548.767	450
548.98	451
549.193	451
549.407	455
549.62	473
549.833	468
550.046	448
550.259	446
550.473	452
550.686	427
550.899	442
551.112	427
551.325	445
551.538	424
551.751	436
551.964	444
552.177	439
552.39	449
552.603	419
552.816	432
553.029	438
553.242	451
553.455	450
553.667	455
553.88	460
554.093	471
554.306	459
554.519	463
554.732	454
554.944	426
555.157	426
555.37	424
555.583	435
555.795	435
556.008	434
556.221	415
556.433	422
556.646	408
556.859	428
557.071	414
557.284	409
557.496	427
557.709	414
557.921	398
558.134	398
558.346	424
558.559	404
558.771	401
558.984	412
559.196	406
559.409	414
559.621	394
559.833	404
560.046	387
560.258	409
560.47	377
560.683	394
560.895	389
561.107	392
561.32	420
561.532	412
561.744	413
561.956	403
562.168	401
562.381	391
562.593	397
562.805	402
563.017	405
563.229	408
563.441	401
563.653	409
563.865	396
564.077	412
564.289	418
564.501	408
564.713	430
564.925	422
565.137	417
565.349	421
565.561	423
565.773	431
565.985	426
566.197	469
566.408	451
566.62	458
566.832	463
567.044	477
567.255	468
567.467	491
567.679	462
567.891	444
568.102	482
568.314	462
568.526	457
568.737	436
568.949	430
569.161	401
569.372	406
569.584	414
569.795	406
570.007	409
570.218	456
570.43	446
570.641	376
570.853	391
571.064	388
571.276	380
571.487	376
571.698	387
571.91	386
572.121	352
572.333	380
572.544	379
572.755	358
572.966	368
573.178	389
573.389	353
573.6	357
573.811	349
574.023	364
574.234	360
574.445	343
574.656	328
574.867	350
575.078	353
575.289	324
575.501	349
575.712	333
575.923	324
576.134	330
576.345	340
576.556	335
576.767	358
576.978	350
577.188	326
577.399	330
577.61	323
577.821	346
578.032	346
578.243	349
578.454	564
578.665	444
578.875	343
579.086	329
579.297	319
579.508	336
579.718	334
579.929	306
580.14	323
580.35	314
580.561	319
580.772	312
580.982	322
581.193	298
581.403	323
581.614	319
581.825	294
582.035	318
582.246	309
582.456	320
582.667	319
582.877	316
583.087	310
583.298	314
583.508	310
583.719	316
583.929	318
584.139	322
584.35	299
584.56	323
584.77	292
584.981	310
585.191	310
585.401	299
585.611	296
585.821	292
586.032	300
586.242	295
586.452	316
586.662	293
586.872	302
587.082	304
587.292	290
587.502	296
587.713	301
587.923	282
588.133	294
588.343	290
588.553	308
588.762	308
588.972	309
589.182	333
589.392	319
589.602	302
589.812	314
590.022	313
590.232	288
590.441	281
590.651	302
590.861	290
591.071	301
591.281	308
591.49	296
591.7	309
591.91	298
592.119	295
592.329	303
592.539	315
592.748	287
592.958	295
593.167	293
593.377	304
593.587	315
593.796	302
594.006	296
594.215	291
594.424	287
594.634	330
594.843	276
595.053	288
595.262	304
595.472	309
595.681	278
595.89	298
596.1	292
596.309	302
596.518	292
596.727	288
596.937	272
597.146	289
597.355	279
597.564	272
597.774	276
597.983	271
598.192	267
598.401	269
598.61	267
598.819	275
599.028	277
599.237	282
599.446	261
599.655	272
599.864	273
600.073	270
600.282	271
600.491	257
600.7	267
600.909	270
601.118	272
601.327	267
601.536	275
601.745	272
601.953	270
602.162	254
602.371	257
602.58	265
602.789	261
602.997	267
603.206	254
603.415	251
603.623	255
603.832	263
604.041	244
604.249	267
604.458	255
604.666	250
604.875	258
605.084	266
605.292	243
605.501	258
605.709	259
605.918	264
606.126	252
606.334	264
606.543	260
606.751	278
606.96	262
607.168	242
607.376	247
607.585	250
607.793	259
608.001	239
608.21	243
608.418	258
608.626	225
608.834	264
609.043	272
609.251	262
609.459	233
609.667	274
609.875	266
610.083	250
610.291	248
610.499	265
610.707	252
610.916	249
611.124	250
611.332	252
611.54	266
611.748	266
611.955	248
612.163	264
612.371	242
612.579	246
612.787	255
612.995	240
613.203	260
613.411	235
613.618	252
613.826	255
614.034	251
614.242	238
614.449	242
614.657	230
614.865	258
615.072	231
615.28	243
615.488	254
615.695	229
615.903	240
616.111	243
616.318	248
616.526	231
616.733	254
616.941	238
617.148	240
617.356	241
617.563	231
617.771	252
617.978	233
618.185	242
618.393	216
618.6	236
618.807	243
619.015	269
619.222	236
619.429	233
619.637	229
619.844	233
620.051	226
620.258	232
620.466	248
620.673	233
620.88	230
621.087	224
621.294	238
621.501	251
621.708	235
621.915	225
622.122	224
622.329	234
622.536	238
622.743	223
622.95	228
623.157	211
623.364	239
623.571	231
623.778	212
623.985	213
624.192	232
624.399	235
624.606	218
624.812	219
625.019	216
625.226	218
625.433	224
625.639	211
625.846	216
626.053	210
626.259	221
626.466	222
626.673	214
626.879	216
627.086	212
627.293	205
627.499	207
627.706	196
627.912	212
628.119	221
628.325	206
628.532	211
628.738	210
628.945	211
629.151	204
629.357	211
629.564	200
629.77	217
629.976	187
630.183	227
630.389	218
630.595	202
630.802	199
631.008	186
631.214	189
631.42	202
631.627	208
631.833	190
632.039	199
632.245	193
632.451	214
632.657	199
632.863	208
633.069	214
633.275	199
633.481	195
633.688	199
633.893	201
634.099	186
634.305	205
634.511	188
634.717	204
634.923	195
635.129	200
635.335	194
635.541	180
635.747	201
635.952	185
636.158	187
636.364	204
636.57	195
636.775	184
636.981	196
637.187	200
637.392	181
637.598	213
637.804	210
638.009	183
638.215	200
638.421	191
638.626	189
638.832	181
639.037	162
639.243	196
639.448	184
639.654	173
639.859	186
640.065	177
640.27	170
640.475	173
640.681	183
640.886	168
641.091	174
641.297	179
641.502	170
641.707	165
641.913	187
642.118	192
642.323	175
642.528	175
642.733	187
642.939	185
643.144	155
643.349	175
643.554	171
643.759	163
643.964	183
644.169	173
644.374	171
644.579	175
644.784	165
644.989	165
645.194	178
645.399	172
645.604	192
645.809	177
646.014	162
646.219	174
646.423	170
646.628	172
646.833	151
647.038	167
647.243	166
647.447	158
647.652	175
647.857	182
648.062	189
648.266	173
648.471	181
648.676	175
648.88	172
649.085	199
649.289	183
649.494	173
649.698	190
649.903	177
650.107	170
650.312	166
650.516	163
650.721	155
650.925	166
651.13	157
651.334	163
651.539	145
651.743	147
651.947	155
652.152	145
652.356	149
652.56	151
652.764	142
652.969	143
653.173	156
653.377	153
653.581	132
653.785	138
653.99	136
654.194	140
654.398	148
654.602	133
654.806	141
655.01	142
655.214	146
655.418	136
655.622	145
655.826	134
656.03	119
656.234	129
656.438	141
656.642	119
656.846	132
657.049	146
657.253	133
657.457	121
657.661	107
657.865	109
658.068	116
658.272	106
658.476	98
658.68	117
658.883	111
659.087	90
659.291	99
659.494	101
659.698	102
659.901	104
660.105	102
660.309	107
660.512	98
660.716	114
660.919	102
661.123	80
661.326	91
661.53	98
661.733	84
661.936	101
662.14	90
662.343	93
662.546	80
662.75	87
662.953	100
663.156	89
663.36	94
663.563	95
663.766	87
663.969	92
664.173	78
664.376	80
664.579	92
664.782	76
664.985	75
665.188	78
665.391	87
665.594	106
665.797	83
666	78
666.203	80
666.406	78
666.609	85
666.812	75
667.015	90
667.218	77
667.421	76
667.624	91
667.827	93
668.03	75
668.232	86
668.435	86
668.638	79
668.841	90
669.043	73
669.246	72
669.449	87
669.651	89
669.854	72
670.057	85
670.259	77
670.462	84
670.665	79
670.867	70
671.07	77
671.272	104
671.475	86
671.677	86
671.88	81
672.082	86
672.284	78
672.487	87
672.689	82
672.892	90
