Data from 1971.PennyLincolnUp.Lamp.En5.5.200Scan.071719.P1._HRD10591_15-19-28-840.txt Node
Date: Thu Jul 18 15:19:28 EDT 2019
User: cochatt
Spectrometer: HR+D1059
Trigger mode: 1
Integration Time (sec): 1.000000E-1
Scans to average: 1
Electric dark correction enabled: true
Nonlinearity correction enabled: false
Boxcar width: 0
XAxis mode: Wavelengths
Number of Pixels in Spectrum: 2048
>>>>>Begin Spectral Data<<<<<
223.165	-12
223.4	-12
223.635	-12
223.869	-16
224.104	-15
224.338	-11
224.573	-15
224.808	-15
225.042	-6
225.277	-8
225.511	3
225.746	2
225.98	10
226.215	12
226.449	18
226.683	19
226.918	12
227.152	22
227.387	33
227.621	33
227.856	36
228.09	32
228.324	33
228.559	69
228.793	53
229.027	93
229.262	106
229.496	110
229.73	127
229.964	140
230.199	120
230.433	116
230.667	116
230.901	102
231.136	104
231.37	91
231.604	97
231.838	109
232.072	119
232.306	93
232.541	95
232.775	118
233.009	108
233.243	105
233.477	118
233.711	120
233.945	109
234.179	119
234.413	124
234.647	110
234.881	102
235.115	121
235.349	113
235.583	112
235.817	127
236.051	119
236.285	108
236.519	118
236.753	114
236.987	138
237.221	180
237.455	229
237.689	174
237.922	139
238.156	127
238.39	137
238.624	134
238.858	124
239.091	131
239.325	133
239.559	122
239.793	128
240.027	131
240.26	133
240.494	143
240.728	150
240.961	147
241.195	153
241.429	135
241.662	126
241.896	133
242.13	119
242.363	133
242.597	136
242.83	123
243.064	135
243.298	122
243.531	136
243.765	139
243.998	124
244.232	144
244.465	142
244.699	137
244.932	154
245.166	151
245.399	148
245.633	138
245.866	145
246.099	140
246.333	141
246.566	151
246.8	153
247.033	149
247.266	164
247.5	167
247.733	178
247.966	169
248.2	156
248.433	159
248.666	191
248.899	193
249.133	204
249.366	187
249.599	195
249.832	183
250.066	177
250.299	183
250.532	207
250.765	211
250.998	223
251.231	225
251.465	218
251.698	200
251.931	199
252.164	192
252.397	189
252.63	209
252.863	195
253.096	229
253.329	240
253.562	239
253.795	207
254.028	213
254.261	216
254.494	217
254.727	267
254.96	280
255.193	271
255.426	249
255.659	253
255.892	252
256.124	211
256.357	230
256.59	229
256.823	227
257.056	216
257.289	227
257.521	205
257.754	223
257.987	196
258.22	218
258.452	212
258.685	222
258.918	221
259.151	211
259.383	224
259.616	219
259.849	257
260.081	265
260.314	261
260.547	256
260.779	262
261.012	244
261.244	219
261.477	232
261.71	218
261.942	245
262.175	235
262.407	228
262.64	206
262.872	199
263.105	213
263.337	223
263.57	218
263.802	216
264.035	217
264.267	213
264.499	205
264.732	225
264.964	209
265.197	220
265.429	213
265.661	215
265.894	207
266.126	233
266.358	227
266.591	231
266.823	231
267.055	224
267.287	231
267.52	221
267.752	237
267.984	253
268.216	236
268.448	259
268.681	258
268.913	250
269.145	289
269.377	281
269.609	276
269.841	273
270.073	292
270.306	301
270.538	317
270.77	327
271.002	326
271.234	287
271.466	334
271.698	330
271.93	324
272.162	330
272.394	311
272.626	304
272.858	300
273.09	292
273.322	296
273.553	269
273.785	274
274.017	265
274.249	267
274.481	282
274.713	265
274.945	292
275.176	271
275.408	274
275.64	272
275.872	273
276.104	273
276.335	290
276.567	287
276.799	267
277.031	313
277.262	322
277.494	325
277.726	309
277.957	299
278.189	293
278.421	296
278.652	267
278.884	280
279.115	276
279.347	285
279.579	269
279.81	288
280.042	279
280.273	298
280.505	267
280.736	281
280.968	277
281.199	264
281.431	290
281.662	291
281.894	280
282.125	289
282.356	309
282.588	310
282.819	304
283.051	291
283.282	284
283.513	283
283.745	294
283.976	290
284.207	297
284.439	291
284.67	299
284.901	288
285.132	281
285.364	289
285.595	302
285.826	277
286.057	301
286.288	291
286.52	301
286.751	312
286.982	285
287.213	313
287.444	305
287.675	299
287.906	312
288.138	306
288.369	310
288.6	276
288.831	322
289.062	313
289.293	307
289.524	307
289.755	303
289.986	292
290.217	303
290.448	300
290.679	295
290.91	299
291.141	275
291.371	300
291.602	298
291.833	293
292.064	284
292.295	312
292.526	295
292.757	319
292.987	292
293.218	304
293.449	295
293.68	311
293.91	289
294.141	282
294.372	285
294.603	297
294.833	308
295.064	327
295.295	293
295.525	298
295.756	308
295.987	298
296.217	332
296.448	319
296.679	313
296.909	293
297.14	293
297.37	320
297.601	315
297.831	303
298.062	312
298.292	302
298.523	306
298.753	312
298.984	321
299.214	336
299.445	309
299.675	335
299.905	319
300.136	315
300.366	325
300.597	324
300.827	331
301.057	313
301.288	339
301.518	324
301.748	346
301.979	338
302.209	320
302.439	333
302.669	329
302.9	338
303.13	332
303.36	363
303.59	346
303.82	353
304.051	339
304.281	333
304.511	334
304.741	327
304.971	344
305.201	330
305.431	339
305.661	327
305.891	335
306.121	348
306.352	356
306.582	360
306.812	337
307.042	345
307.272	357
307.502	333
307.731	352
307.961	350
308.191	333
308.421	343
308.651	344
308.881	369
309.111	346
309.341	352
309.571	362
309.8	362
310.03	386
310.26	378
310.49	379
310.72	369
310.949	404
311.179	384
311.409	391
311.639	389
311.868	386
312.098	386
312.328	378
312.557	385
312.787	424
313.017	404
313.246	381
313.476	352
313.706	385
313.935	405
314.165	391
314.394	405
314.624	413
314.853	390
315.083	407
315.312	372
315.542	410
315.771	389
316.001	385
316.23	388
316.46	386
316.689	384
316.919	388
317.148	395
317.377	408
317.607	387
317.836	399
318.065	368
318.295	376
318.524	380
318.753	372
318.983	377
319.212	393
319.441	408
319.67	401
319.9	409
320.129	393
320.358	379
320.587	376
320.816	397
321.046	412
321.275	391
321.504	402
321.733	401
321.962	396
322.191	442
322.42	449
322.649	442
322.878	462
323.108	479
323.337	483
323.566	506
323.795	516
324.024	586
324.253	730
324.482	998
324.71	1449
324.939	2013
325.168	1641
325.397	876
325.626	631
325.855	555
326.084	513
326.313	475
326.542	497
326.77	555
326.999	627
327.228	899
327.457	1271
327.686	1448
327.914	991
328.143	678
328.372	615
328.6	571
328.829	539
329.058	554
329.287	555
329.515	539
329.744	519
329.972	487
330.201	507
330.43	560
330.658	569
330.887	577
331.115	549
331.344	491
331.572	469
331.801	493
332.03	465
332.258	451
332.486	456
332.715	456
332.943	440
333.172	449
333.4	444
333.629	447
333.857	470
334.085	489
334.314	488
334.542	506
334.771	532
334.999	494
335.227	459
335.455	474
335.684	441
335.912	451
336.14	418
336.369	443
336.597	449
336.825	438
337.053	451
337.281	444
337.51	423
337.738	431
337.966	451
338.194	448
338.422	424
338.65	416
338.878	436
339.106	433
339.334	428
339.562	405
339.79	422
340.018	417
340.246	414
340.474	451
340.702	429
340.93	409
341.158	405
341.386	407
341.614	417
341.842	428
342.07	408
342.298	420
342.526	406
342.754	389
342.981	400
343.209	390
343.437	421
343.665	418
343.893	413
344.12	433
344.348	410
344.576	415
344.804	420
345.031	435
345.259	433
345.487	454
345.714	400
345.942	403
346.17	418
346.397	422
346.625	404
346.853	388
347.08	403
347.308	411
347.535	411
347.763	426
347.99	425
348.218	402
348.445	415
348.673	409
348.9	402
349.128	417
349.355	401
349.583	396
349.81	367
350.037	375
350.265	391
350.492	377
350.72	403
350.947	401
351.174	378
351.402	427
351.629	432
351.856	399
352.083	441
352.311	391
352.538	412
352.765	401
352.992	415
353.22	389
353.447	383
353.674	378
353.901	371
354.128	399
354.355	378
354.583	399
354.81	372
355.037	378
355.264	364
355.491	367
355.718	355
355.945	361
356.172	377
356.399	390
356.626	355
356.853	357
357.08	373
357.307	377
357.534	350
357.761	358
357.988	371
358.215	361
358.441	375
358.668	367
358.895	389
359.122	387
359.349	376
359.576	398
359.802	399
360.029	415
360.256	442
360.483	420
360.709	374
360.936	383
361.163	381
361.39	394
361.616	388
361.843	377
362.07	387
362.296	393
362.523	389
362.749	364
362.976	388
363.203	381
363.429	371
363.656	345
363.882	377
364.109	378
364.335	373
364.562	356
364.788	369
365.015	363
365.241	359
365.468	387
365.694	370
365.92	380
366.147	364
366.373	358
366.599	374
366.826	375
367.052	349
367.278	359
367.505	372
367.731	376
367.957	368
368.184	360
368.41	375
368.636	369
368.862	384
369.089	372
369.315	351
369.541	359
369.767	363
369.993	369
370.219	355
370.445	357
370.672	343
370.898	346
371.124	355
371.35	354
371.576	352
371.802	376
372.028	365
372.254	368
372.48	381
372.706	356
372.932	364
373.158	368
373.384	370
373.61	365
373.835	362
374.061	355
374.287	369
374.513	357
374.739	392
374.965	390
375.191	377
375.416	380
375.642	353
375.868	358
376.094	360
376.319	336
376.545	367
376.771	356
376.997	337
377.222	363
377.448	353
377.674	360
377.899	367
378.125	353
378.35	358
378.576	336
378.802	346
379.027	345
379.253	357
379.478	373
379.704	353
379.929	355
380.155	363
380.38	354
380.606	365
380.831	375
381.057	371
381.282	367
381.507	363
381.733	342
381.958	346
382.184	358
382.409	369
382.634	360
382.86	362
383.085	343
383.31	356
383.535	368
383.761	361
383.986	367
384.211	364
384.436	349
384.662	368
384.887	381
385.112	373
385.337	379
385.562	360
385.787	399
386.013	394
386.238	378
386.463	373
386.688	377
386.913	365
387.138	360
387.363	373
387.588	385
387.813	364
388.038	381
388.263	387
388.488	389
388.713	385
388.938	388
389.163	391
389.387	367
389.612	359
389.837	365
390.062	386
390.287	373
390.512	390
390.736	383
390.961	367
391.186	374
391.411	355
391.636	367
391.86	383
392.085	377
392.31	383
392.534	369
392.759	377
392.984	364
393.208	381
393.433	390
393.658	376
393.882	375
394.107	377
394.331	358
394.556	380
394.78	383
395.005	391
395.229	372
395.454	375
395.678	385
395.903	385
396.127	410
396.352	386
396.576	399
396.801	367
397.025	388
397.249	387
397.474	377
397.698	390
397.922	409
398.147	413
398.371	413
398.595	414
398.82	412
399.044	412
399.268	423
399.492	470
399.717	491
399.941	474
400.165	507
400.389	531
400.613	441
400.837	421
401.062	415
401.286	429
401.51	420
401.734	408
401.958	420
402.182	411
402.406	426
402.63	426
402.854	432
403.078	401
403.302	417
403.526	409
403.75	419
403.974	444
404.198	452
404.422	444
404.645	437
404.869	452
405.093	470
405.317	499
405.541	506
405.765	459
405.988	441
406.212	463
406.436	473
406.66	469
406.883	455
407.107	483
407.331	526
407.555	572
407.778	548
408.002	503
408.226	479
408.449	473
408.673	478
408.896	510
409.12	538
409.344	516
409.567	467
409.791	433
410.014	432
410.238	442
410.461	412
410.685	420
410.908	448
411.132	476
411.355	497
411.578	486
411.802	449
412.025	425
412.249	435
412.472	452
412.695	487
412.919	460
413.142	440
413.365	409
413.589	419
413.812	409
414.035	404
414.258	384
414.482	390
414.705	393
414.928	392
415.151	395
415.374	396
415.597	408
415.821	407
416.044	421
416.267	411
416.49	405
416.713	401
416.936	404
417.159	422
417.382	410
417.605	407
417.828	429
418.051	431
418.274	403
418.497	397
418.72	417
418.943	396
419.166	422
419.389	434
419.611	403
419.834	431
420.057	443
420.28	429
420.503	415
420.726	430
420.948	437
421.171	449
421.394	490
421.617	449
421.839	421
422.062	432
422.285	426
422.507	488
422.73	548
422.953	519
423.175	468
423.398	451
423.621	426
423.843	455
424.066	450
424.288	441
424.511	467
424.733	527
424.956	602
425.178	543
425.401	563
425.623	548
425.846	470
426.068	449
426.291	447
426.513	452
426.735	447
426.958	483
427.18	570
427.402	654
427.625	727
427.847	645
428.069	567
428.292	475
428.514	460
428.736	424
428.958	438
429.181	410
429.403	415
429.625	442
429.847	482
430.069	490
430.292	512
430.514	439
430.736	417
430.958	393
431.18	390
431.402	405
431.624	392
431.846	385
432.068	383
432.29	406
432.512	387
432.734	412
432.956	400
433.178	404
433.4	418
433.622	408
433.844	396
434.066	405
434.287	401
434.509	401
434.731	411
434.953	408
435.175	421
435.397	457
435.618	454
435.84	478
436.062	569
436.284	602
436.505	500
436.727	466
436.949	433
437.17	424
437.392	416
437.614	426
437.835	441
438.057	536
438.278	617
438.5	629
438.721	671
438.943	638
439.165	515
439.386	461
439.608	467
439.829	484
440.05	474
440.272	516
440.493	474
440.715	445
440.936	437
441.158	436
441.379	432
441.6	427
441.822	461
442.043	487
442.264	546
442.486	585
442.707	501
442.928	471
443.149	476
443.371	490
443.592	513
443.813	607
444.034	654
444.255	522
444.476	478
444.698	474
444.919	456
445.14	577
445.361	515
445.582	526
445.803	546
446.024	608
446.245	661
446.466	563
446.687	487
446.908	459
447.129	441
447.35	419
447.571	423
447.792	434
448.013	411
448.234	432
448.455	474
448.675	583
448.896	629
449.117	575
449.338	531
449.559	633
449.779	694
450	570
450.221	456
450.442	433
450.662	391
450.883	423
451.104	439
451.324	412
451.545	380
451.766	384
451.986	374
452.207	353
452.428	372
452.648	383
452.869	367
453.089	384
453.31	388
453.53	384
453.751	374
453.971	381
454.192	387
454.412	373
454.633	384
454.853	364
455.073	371
455.294	397
455.514	440
455.734	413
455.955	377
456.175	378
456.395	343
456.616	350
456.836	333
457.056	339
457.276	333
457.497	348
457.717	346
457.937	354
458.157	351
458.377	353
458.598	383
458.818	418
459.038	457
459.258	502
459.478	442
459.698	391
459.918	364
460.138	383
460.358	383
460.578	402
460.798	372
461.018	370
461.238	371
461.458	389
461.678	376
461.898	387
462.118	407
462.338	405
462.558	406
462.777	397
462.997	406
463.217	425
463.437	431
463.657	404
463.876	410
464.096	395
464.316	402
464.536	416
464.755	413
464.975	423
465.195	467
465.414	498
465.634	455
465.854	413
466.073	401
466.293	374
466.512	377
466.732	363
466.951	387
467.171	381
467.391	368
467.61	394
467.829	390
468.049	374
468.268	363
468.488	365
468.707	366
468.927	375
469.146	357
469.365	362
469.585	377
469.804	379
470.023	368
470.243	375
470.462	381
470.681	429
470.901	388
471.12	361
471.339	403
471.558	391
471.777	391
471.997	395
472.216	383
472.435	400
472.654	391
472.873	370
473.092	389
473.311	400
473.53	404
473.749	387
473.968	440
474.187	516
474.406	521
474.625	426
474.844	412
475.063	395
475.282	384
475.501	371
475.72	389
475.939	389
476.158	398
476.377	402
476.596	390
476.814	407
477.033	410
477.252	401
477.471	393
477.69	412
477.908	404
478.127	419
478.346	402
478.564	417
478.783	406
479.002	419
479.22	431
479.439	434
479.658	458
479.876	449
480.095	459
480.313	482
480.532	487
480.751	460
480.969	469
481.188	535
481.406	526
481.624	468
481.843	449
482.061	448
482.28	433
482.498	445
482.717	438
482.935	425
483.153	445
483.372	452
483.59	445
483.808	438
484.027	438
484.245	429
484.463	454
484.681	480
484.9	464
485.118	473
485.336	447
485.554	453
485.772	436
485.99	479
486.209	446
486.427	455
486.645	469
486.863	495
487.081	488
487.299	484
487.517	468
487.735	489
487.953	465
488.171	491
488.389	472
488.607	490
488.825	478
489.043	481
489.261	494
489.479	486
489.696	488
489.914	485
490.132	498
490.35	498
490.568	501
490.786	508
491.003	524
491.221	531
491.439	516
491.657	535
491.874	542
492.092	561
492.31	568
492.527	554
492.745	551
492.963	523
493.18	548
493.398	545
493.615	558
493.833	563
494.05	572
494.268	552
494.485	568
494.703	580
494.92	583
495.138	579
495.355	556
495.573	563
495.79	565
496.008	550
496.225	561
496.442	587
496.66	575
496.877	576
497.094	563
497.312	576
497.529	599
497.746	583
497.963	594
498.181	610
498.398	620
498.615	621
498.832	639
499.049	649
499.267	627
499.484	649
499.701	676
499.918	691
500.135	727
500.352	751
500.569	756
500.786	756
501.003	743
501.22	719
501.437	714
501.654	677
501.871	689
502.088	674
502.305	668
502.522	634
502.739	605
502.956	601
503.172	590
503.389	591
503.606	569
503.823	564
504.04	589
504.256	560
504.473	544
504.69	553
504.907	567
505.123	573
505.34	577
505.557	536
505.773	527
505.99	531
506.207	543
506.423	543
506.64	538
506.856	549
507.073	537
507.289	522
507.506	531
507.722	532
507.939	533
508.155	509
508.372	507
508.588	500
508.805	489
509.021	518
509.238	525
509.454	530
509.67	526
509.887	505
510.103	526
510.319	528
510.536	597
510.752	910
510.968	726
511.184	519
511.401	469
511.617	508
511.833	497
512.049	482
512.265	488
512.481	476
512.698	477
512.914	508
513.13	487
513.346	479
513.562	480
513.778	486
513.994	483
514.21	488
514.426	497
514.642	516
514.858	567
515.074	563
515.29	673
515.506	956
515.721	779
515.937	580
516.153	536
516.369	534
516.585	501
516.801	488
517.016	508
517.232	498
517.448	501
517.664	496
517.879	489
518.095	481
518.311	490
518.527	505
518.742	490
518.958	474
519.173	478
519.389	484
519.605	477
519.82	496
520.036	503
520.251	503
520.467	537
520.682	529
520.898	532
521.113	537
521.329	583
521.544	641
521.76	781
521.975	1229
522.19	1123
522.406	689
522.621	521
522.836	483
523.052	470
523.267	469
523.482	472
523.698	428
523.913	442
524.128	454
524.343	435
524.559	442
524.774	450
524.989	419
525.204	423
525.419	424
525.634	385
525.849	415
526.064	399
526.28	425
526.495	408
526.71	393
526.925	403
527.14	392
527.355	393
527.57	376
527.785	392
527.999	396
528.214	388
528.429	392
528.644	389
528.859	403
529.074	409
529.289	438
529.503	493
529.718	438
529.933	417
530.148	414
530.363	389
530.577	390
530.792	387
531.007	378
531.221	387
531.436	377
531.651	389
531.865	372
532.08	373
532.295	358
532.509	355
532.724	361
532.938	373
533.153	390
533.367	370
533.582	364
533.796	348
534.011	364
534.225	362
534.44	346
534.654	374
534.868	384
535.083	357
535.297	383
535.511	377
535.726	394
535.94	375
536.154	401
536.369	368
536.583	363
536.797	356
537.011	365
537.225	372
537.44	341
537.654	373
537.868	357
538.082	375
538.296	373
538.51	374
538.724	374
538.938	334
539.153	365
539.367	388
539.581	392
539.795	365
540.009	360
540.222	358
540.436	370
540.65	371
540.864	369
541.078	378
541.292	380
541.506	384
541.72	373
541.934	386
542.147	389
542.361	369
542.575	336
542.789	353
543.002	355
543.216	344
543.43	362
543.644	374
543.857	363
544.071	361
544.285	383
544.498	371
544.712	364
544.925	352
545.139	366
545.352	358
545.566	371
545.779	377
545.993	359
546.206	394
546.42	354
546.633	387
546.847	362
547.06	360
547.274	360
547.487	370
547.7	342
547.914	373
548.127	347
548.34	339
548.554	348
548.767	357
548.98	349
549.193	355
549.407	361
549.62	350
549.833	367
550.046	346
550.259	347
550.473	345
550.686	340
550.899	351
551.112	344
551.325	345
551.538	352
551.751	337
551.964	328
552.177	340
552.39	349
552.603	347
552.816	335
553.029	356
553.242	345
553.455	346
553.667	356
553.88	357
554.093	344
554.306	368
554.519	339
554.732	339
554.944	343
555.157	323
555.37	328
555.583	328
555.795	338
556.008	339
556.221	332
556.433	329
556.646	313
556.859	309
557.071	329
557.284	312
557.496	310
557.709	304
557.921	315
558.134	319
558.346	326
558.559	344
558.771	318
558.984	323
559.196	316
559.409	316
559.621	305
559.833	307
560.046	317
560.258	310
560.47	311
560.683	313
560.895	315
561.107	319
561.32	286
561.532	284
561.744	312
561.956	329
562.168	312
562.381	314
562.593	294
562.805	328
563.017	326
563.229	300
563.441	310
563.653	310
563.865	321
564.077	303
564.289	329
564.501	328
564.713	313
564.925	325
565.137	340
565.349	341
565.561	325
565.773	326
565.985	335
566.197	351
566.408	355
566.62	358
566.832	374
567.044	362
567.255	362
567.467	360
567.679	379
567.891	373
568.102	375
568.314	358
568.526	333
568.737	342
568.949	343
569.161	344
569.372	308
569.584	306
569.795	303
570.007	321
570.218	351
570.43	333
570.641	303
570.853	288
571.064	283
571.276	290
571.487	278
571.698	281
571.91	282
572.121	275
572.333	282
572.544	285
572.755	282
572.966	285
573.178	277
573.389	280
573.6	272
573.811	277
574.023	263
574.234	257
574.445	271
574.656	265
574.867	275
575.078	259
575.289	260
575.501	280
575.712	261
575.923	246
576.134	248
576.345	253
576.556	251
576.767	261
576.978	264
577.188	263
577.399	257
577.61	266
577.821	242
578.032	247
578.243	285
578.454	420
578.665	320
578.875	257
579.086	244
579.297	255
579.508	250
579.718	255
579.929	252
580.14	225
580.35	234
580.561	256
580.772	239
580.982	244
581.193	241
581.403	254
581.614	241
581.825	241
582.035	231
582.246	239
582.456	233
582.667	234
582.877	234
583.087	255
583.298	239
583.508	247
583.719	227
583.929	230
584.139	230
584.35	224
584.56	236
584.77	224
584.981	235
585.191	231
585.401	231
585.611	247
585.821	223
586.032	231
586.242	220
586.452	228
586.662	228
586.872	240
587.082	235
587.292	219
587.502	225
587.713	234
587.923	245
588.133	235
588.343	232
588.553	217
588.762	235
588.972	242
589.182	255
589.392	250
589.602	235
589.812	231
590.022	218
590.232	221
590.441	244
590.651	229
590.861	235
591.071	223
591.281	226
591.49	234
591.7	223
591.91	246
592.119	249
592.329	232
592.539	251
592.748	260
592.958	239
593.167	243
593.377	241
593.587	249
593.796	232
594.006	239
594.215	232
594.424	241
594.634	243
594.843	229
595.053	234
595.262	237
595.472	251
595.681	231
595.89	247
596.1	226
596.309	207
596.518	209
596.727	208
596.937	234
597.146	231
597.355	227
597.564	200
597.774	224
597.983	209
598.192	209
598.401	219
598.61	196
598.819	224
599.028	221
599.237	197
599.446	234
599.655	204
599.864	195
600.073	203
600.282	210
600.491	200
600.7	208
600.909	223
601.118	203
601.327	211
601.536	202
601.745	196
601.953	212
602.162	193
602.371	199
602.58	204
602.789	215
602.997	204
603.206	203
603.415	196
603.623	206
603.832	208
604.041	206
604.249	209
604.458	187
604.666	192
604.875	216
605.084	199
605.292	205
605.501	190
605.709	209
605.918	216
606.126	200
606.334	218
606.543	189
606.751	197
606.96	197
607.168	193
607.376	217
607.585	189
607.793	201
608.001	199
608.21	198
608.418	186
608.626	204
608.834	211
609.043	208
609.251	208
609.459	185
609.667	196
609.875	211
610.083	199
610.291	203
610.499	196
610.707	216
610.916	204
611.124	205
611.332	214
611.54	214
611.748	209
611.955	208
612.163	192
612.371	204
612.579	225
612.787	207
612.995	212
613.203	208
613.411	208
613.618	207
613.826	210
614.034	205
614.242	222
614.449	195
614.657	200
614.865	205
615.072	178
615.28	196
615.488	186
615.695	196
615.903	212
616.111	197
616.318	196
616.526	191
616.733	210
616.941	187
617.148	188
617.356	190
617.563	209
617.771	200
617.978	186
618.185	171
618.393	197
618.6	195
618.807	208
619.015	179
619.222	201
619.429	197
619.637	202
619.844	196
620.051	198
620.258	192
620.466	208
620.673	202
620.88	184
621.087	196
621.294	185
621.501	170
621.708	170
621.915	209
622.122	176
622.329	185
622.536	191
622.743	202
622.95	177
623.157	193
623.364	192
623.571	175
623.778	187
623.985	195
624.192	189
624.399	183
624.606	181
624.812	183
625.019	189
625.226	174
625.433	183
625.639	181
625.846	195
626.053	179
626.259	172
626.466	169
626.673	162
626.879	162
627.086	192
627.293	170
627.499	171
627.706	182
627.912	180
628.119	172
628.325	175
628.532	169
628.738	166
628.945	160
629.151	159
629.357	167
629.564	172
629.77	169
629.976	190
630.183	168
630.389	170
630.595	177
630.802	151
631.008	170
631.214	182
631.42	175
631.627	152
631.833	153
632.039	158
632.245	172
632.451	169
632.657	165
632.863	152
633.069	167
633.275	156
633.481	157
633.688	159
633.893	155
634.099	170
634.305	151
634.511	155
634.717	164
634.923	164
635.129	155
635.335	168
635.541	167
635.747	153
635.952	163
636.158	160
636.364	170
636.57	159
636.775	154
636.981	156
637.187	155
637.392	163
637.598	156
637.804	166
638.009	151
638.215	158
638.421	147
638.626	139
638.832	140
639.037	163
639.243	145
639.448	159
639.654	147
639.859	149
640.065	160
640.27	152
640.475	165
640.681	148
640.886	150
641.091	139
641.297	154
641.502	167
641.707	157
641.913	151
642.118	148
642.323	154
642.528	145
642.733	148
642.939	147
643.144	136
643.349	145
643.554	147
643.759	152
643.964	141
644.169	142
644.374	149
644.579	152
644.784	148
644.989	145
645.194	144
645.399	146
645.604	146
645.809	148
646.014	141
646.219	138
646.423	156
646.628	140
646.833	149
647.038	146
647.243	152
647.447	144
647.652	142
647.857	140
648.062	144
648.266	145
648.471	141
648.676	144
648.88	141
649.085	154
649.289	149
649.494	155
649.698	172
649.903	165
650.107	155
650.312	145
650.516	136
650.721	142
650.925	144
651.13	139
651.334	145
651.539	122
651.743	127
651.947	139
652.152	133
652.356	127
652.56	123
652.764	113
652.969	135
653.173	123
653.377	137
653.581	127
653.785	123
653.99	129
654.194	141
654.398	121
654.602	114
654.806	120
655.01	130
655.214	122
655.418	112
655.622	128
655.826	116
656.03	109
656.234	127
656.438	109
656.642	120
656.846	114
657.049	117
657.253	115
657.457	102
657.661	127
657.865	96
658.068	113
658.272	110
658.476	108
658.68	99
658.883	105
659.087	106
659.291	102
659.494	112
659.698	97
659.901	101
660.105	86
660.309	94
660.512	93
660.716	103
660.919	84
661.123	89
661.326	93
661.53	94
661.733	99
661.936	100
662.14	87
662.343	85
662.546	84
662.75	99
662.953	92
663.156	84
663.36	70
663.563	85
663.766	79
663.969	90
664.173	80
664.376	89
664.579	83
664.782	88
664.985	75
665.188	79
665.391	77
665.594	68
665.797	97
666	88
666.203	75
666.406	77
666.609	82
666.812	96
667.015	91
667.218	79
667.421	87
667.624	81
667.827	71
668.03	86
668.232	83
668.435	89
668.638	68
668.841	84
669.043	79
669.246	83
669.449	83
669.651	82
669.854	85
670.057	85
670.259	85
670.462	74
670.665	78
670.867	79
671.07	83
671.272	84
671.475	80
671.677	89
671.88	75
672.082	71
672.284	81
672.487	85
672.689	82
672.892	81
