Data from 1971.PennyLincolnUp.Lamp.En5.5.200Scan.071719.P1._HRD10591_15-19-55-841.txt Node
Date: Thu Jul 18 15:19:55 EDT 2019
User: cochatt
Spectrometer: HR+D1059
Trigger mode: 1
Integration Time (sec): 1.000000E-1
Scans to average: 1
Electric dark correction enabled: true
Nonlinearity correction enabled: false
Boxcar width: 0
XAxis mode: Wavelengths
Number of Pixels in Spectrum: 2048
>>>>>Begin Spectral Data<<<<<
223.165	-17
223.4	-17
223.635	-17
223.869	-2
224.104	-31
224.338	-17
224.573	-29
224.808	3
225.042	-11
225.277	-4
225.511	-12
225.746	0
225.98	-5
226.215	8
226.449	28
226.683	19
226.918	23
227.152	47
227.387	20
227.621	49
227.856	31
228.09	42
228.324	44
228.559	57
228.793	49
229.027	99
229.262	88
229.496	105
229.73	136
229.964	140
230.199	124
230.433	113
230.667	105
230.901	112
231.136	100
231.37	106
231.604	106
231.838	118
232.072	106
232.306	96
232.541	99
232.775	106
233.009	113
233.243	102
233.477	112
233.711	125
233.945	106
234.179	120
234.413	104
234.647	120
234.881	105
235.115	106
235.349	118
235.583	121
235.817	109
236.051	118
236.285	108
236.519	116
236.753	148
236.987	139
237.221	179
237.455	209
237.689	178
237.922	152
238.156	149
238.39	123
238.624	128
238.858	121
239.091	108
239.325	133
239.559	137
239.793	122
240.027	143
240.26	138
240.494	152
240.728	149
240.961	135
241.195	155
241.429	136
241.662	117
241.896	149
242.13	132
242.363	130
242.597	133
242.83	134
243.064	135
243.298	135
243.531	147
243.765	130
243.998	139
244.232	133
244.465	139
244.699	131
244.932	135
245.166	150
245.399	150
245.633	149
245.866	153
246.099	140
246.333	132
246.566	154
246.8	159
247.033	150
247.266	165
247.5	169
247.733	180
247.966	182
248.2	161
248.433	161
248.666	178
248.899	184
249.133	190
249.366	211
249.599	194
249.832	180
250.066	185
250.299	172
250.532	179
250.765	228
250.998	214
251.231	230
251.465	207
251.698	216
251.931	208
252.164	201
252.397	205
252.63	196
252.863	214
253.096	218
253.329	244
253.562	232
253.795	223
254.028	232
254.261	223
254.494	235
254.727	267
254.96	279
255.193	259
255.426	276
255.659	243
255.892	255
256.124	236
256.357	271
256.59	231
256.823	213
257.056	230
257.289	205
257.521	215
257.754	219
257.987	219
258.22	199
258.452	229
258.685	225
258.918	211
259.151	219
259.383	242
259.616	209
259.849	245
260.081	240
260.314	266
260.547	276
260.779	263
261.012	261
261.244	234
261.477	242
261.71	227
261.942	251
262.175	226
262.407	236
262.64	233
262.872	211
263.105	220
263.337	234
263.57	213
263.802	234
264.035	219
264.267	203
264.499	219
264.732	209
264.964	221
265.197	233
265.429	227
265.661	220
265.894	223
266.126	243
266.358	234
266.591	224
266.823	237
267.055	228
267.287	243
267.52	226
267.752	251
267.984	237
268.216	241
268.448	251
268.681	263
268.913	247
269.145	283
269.377	291
269.609	288
269.841	280
270.073	281
270.306	298
270.538	310
270.77	339
271.002	332
271.234	323
271.466	317
271.698	324
271.93	333
272.162	330
272.394	341
272.626	325
272.858	299
273.09	292
273.322	298
273.553	276
273.785	260
274.017	298
274.249	261
274.481	291
274.713	292
274.945	273
275.176	268
275.408	268
275.64	276
275.872	279
276.104	274
276.335	278
276.567	282
276.799	310
277.031	312
277.262	328
277.494	332
277.726	321
277.957	304
278.189	302
278.421	275
278.652	300
278.884	278
279.115	280
279.347	280
279.579	266
279.81	264
280.042	281
280.273	285
280.505	275
280.736	273
280.968	265
281.199	266
281.431	293
281.662	269
281.894	277
282.125	283
282.356	291
282.588	323
282.819	311
283.051	285
283.282	285
283.513	290
283.745	305
283.976	309
284.207	287
284.439	301
284.67	296
284.901	283
285.132	283
285.364	301
285.595	284
285.826	269
286.057	286
286.288	292
286.52	295
286.751	309
286.982	308
287.213	284
287.444	289
287.675	303
287.906	312
288.138	328
288.369	323
288.6	316
288.831	339
289.062	316
289.293	304
289.524	303
289.755	306
289.986	311
290.217	303
290.448	308
290.679	305
290.91	305
291.141	276
291.371	298
291.602	301
291.833	291
292.064	299
292.295	293
292.526	308
292.757	294
292.987	316
293.218	303
293.449	300
293.68	293
293.91	324
294.141	300
294.372	303
294.603	303
294.833	315
295.064	318
295.295	310
295.525	293
295.756	324
295.987	305
296.217	316
296.448	338
296.679	320
296.909	300
297.14	311
297.37	328
297.601	316
297.831	330
298.062	326
298.292	328
298.523	342
298.753	323
298.984	307
299.214	332
299.445	317
299.675	341
299.905	330
300.136	311
300.366	326
300.597	331
300.827	336
301.057	329
301.288	340
301.518	324
301.748	344
301.979	349
302.209	336
302.439	328
302.669	324
302.9	328
303.13	347
303.36	344
303.59	331
303.82	352
304.051	364
304.281	327
304.511	343
304.741	340
304.971	345
305.201	338
305.431	340
305.661	355
305.891	333
306.121	331
306.352	343
306.582	349
306.812	348
307.042	332
307.272	332
307.502	345
307.731	377
307.961	352
308.191	347
308.421	342
308.651	352
308.881	355
309.111	347
309.341	372
309.571	362
309.8	383
310.03	379
310.26	389
310.49	404
310.72	396
310.949	388
311.179	404
311.409	376
311.639	396
311.868	391
312.098	361
312.328	398
312.557	408
312.787	424
313.017	412
313.246	404
313.476	394
313.706	393
313.935	409
314.165	398
314.394	406
314.624	419
314.853	396
315.083	380
315.312	390
315.542	385
315.771	379
316.001	377
316.23	391
316.46	387
316.689	374
316.919	402
317.148	400
317.377	374
317.607	383
317.836	384
318.065	382
318.295	402
318.524	397
318.753	391
318.983	387
319.212	394
319.441	405
319.67	410
319.9	382
320.129	393
320.358	393
320.587	402
320.816	401
321.046	416
321.275	402
321.504	413
321.733	431
321.962	425
322.191	418
322.42	449
322.649	444
322.878	471
323.108	468
323.337	489
323.566	521
323.795	539
324.024	584
324.253	703
324.482	1034
324.71	1498
324.939	1999
325.168	1693
325.397	892
325.626	641
325.855	541
326.084	514
326.313	507
326.542	520
326.77	566
326.999	649
327.228	905
327.457	1299
327.686	1511
327.914	1031
328.143	710
328.372	635
328.6	573
328.829	561
329.058	575
329.287	575
329.515	550
329.744	502
329.972	522
330.201	560
330.43	553
330.658	572
330.887	577
331.115	572
331.344	532
331.572	497
331.801	504
332.03	498
332.258	467
332.486	469
332.715	466
332.943	447
333.172	459
333.4	472
333.629	459
333.857	488
334.085	530
334.314	509
334.542	525
334.771	553
334.999	490
335.227	481
335.455	460
335.684	448
335.912	433
336.14	440
336.369	465
336.597	452
336.825	466
337.053	452
337.281	467
337.51	432
337.738	433
337.966	440
338.194	436
338.422	439
338.65	449
338.878	433
339.106	416
339.334	434
339.562	435
339.79	426
340.018	429
340.246	449
340.474	451
340.702	438
340.93	419
341.158	431
341.386	429
341.614	443
341.842	437
342.07	428
342.298	400
342.526	407
342.754	415
342.981	409
343.209	407
343.437	402
343.665	428
343.893	428
344.12	417
344.348	423
344.576	436
344.804	415
345.031	435
345.259	450
345.487	444
345.714	428
345.942	422
346.17	403
346.397	426
346.625	417
346.853	414
347.08	416
347.308	412
347.535	427
347.763	411
347.99	419
348.218	435
348.445	409
348.673	396
348.9	394
349.128	407
349.355	403
349.583	401
349.81	406
350.037	410
350.265	407
350.492	404
350.72	422
350.947	413
351.174	391
351.402	411
351.629	395
351.856	413
352.083	405
352.311	424
352.538	415
352.765	410
352.992	421
353.22	404
353.447	399
353.674	389
353.901	394
354.128	373
354.355	384
354.583	375
354.81	401
355.037	399
355.264	392
355.491	395
355.718	346
355.945	381
356.172	379
356.399	383
356.626	364
356.853	363
357.08	363
357.307	371
357.534	383
357.761	375
357.988	378
358.215	377
358.441	389
358.668	385
358.895	383
359.122	396
359.349	392
359.576	401
359.802	418
360.029	435
360.256	422
360.483	423
360.709	407
360.936	388
361.163	395
361.39	414
361.616	415
361.843	390
362.07	393
362.296	395
362.523	376
362.749	389
362.976	383
363.203	387
363.429	388
363.656	392
363.882	387
364.109	375
364.335	371
364.562	346
364.788	371
365.015	372
365.241	386
365.468	388
365.694	372
365.92	379
366.147	376
366.373	383
366.599	375
366.826	366
367.052	349
367.278	373
367.505	367
367.731	363
367.957	371
368.184	362
368.41	370
368.636	369
368.862	365
369.089	365
369.315	362
369.541	380
369.767	360
369.993	367
370.219	367
370.445	385
370.672	347
370.898	356
371.124	367
371.35	364
371.576	375
371.802	384
372.028	375
372.254	361
372.48	377
372.706	353
372.932	375
373.158	379
373.384	384
373.61	370
373.835	359
374.061	353
374.287	362
374.513	361
374.739	363
374.965	369
375.191	369
375.416	393
375.642	369
375.868	375
376.094	358
376.319	345
376.545	372
376.771	367
376.997	374
377.222	368
377.448	348
377.674	353
377.899	364
378.125	349
378.35	352
378.576	361
378.802	342
379.027	356
379.253	362
379.478	369
379.704	348
379.929	336
380.155	357
380.38	370
380.606	361
380.831	364
381.057	377
381.282	359
381.507	352
381.733	348
381.958	368
382.184	373
382.409	361
382.634	368
382.86	343
383.085	365
383.31	385
383.535	385
383.761	352
383.986	346
384.211	367
384.436	373
384.662	371
384.887	375
385.112	368
385.337	375
385.562	387
385.787	372
386.013	379
386.238	382
386.463	376
386.688	381
386.913	376
387.138	376
387.363	373
387.588	381
387.813	385
388.038	373
388.263	381
388.488	372
388.713	376
388.938	386
389.163	378
389.387	390
389.612	379
389.837	380
390.062	366
390.287	376
390.512	371
390.736	392
390.961	376
391.186	373
391.411	387
391.636	380
391.86	389
392.085	378
392.31	388
392.534	392
392.759	386
392.984	371
393.208	371
393.433	372
393.658	380
393.882	373
394.107	367
394.331	361
394.556	363
394.78	381
395.005	384
395.229	364
395.454	405
395.678	387
395.903	408
396.127	402
396.352	405
396.576	396
396.801	399
397.025	394
397.249	391
397.474	390
397.698	402
397.922	410
398.147	407
398.371	405
398.595	423
398.82	428
399.044	443
399.268	447
399.492	475
399.717	471
399.941	490
400.165	519
400.389	525
400.613	463
400.837	435
401.062	427
401.286	420
401.51	415
401.734	433
401.958	407
402.182	435
402.406	447
402.63	442
402.854	414
403.078	439
403.302	421
403.526	444
403.75	429
403.974	441
404.198	435
404.422	483
404.645	446
404.869	451
405.093	474
405.317	481
405.541	496
405.765	464
405.988	461
406.212	450
406.436	487
406.66	490
406.883	498
407.107	471
407.331	504
407.555	556
407.778	569
408.002	531
408.226	503
408.449	476
408.673	485
408.896	499
409.12	538
409.344	500
409.567	450
409.791	454
410.014	435
410.238	443
410.461	434
410.685	423
410.908	455
411.132	478
411.355	492
411.578	491
411.802	445
412.025	427
412.249	455
412.472	471
412.695	501
412.919	479
413.142	446
413.365	436
413.589	419
413.812	414
414.035	402
414.258	413
414.482	394
414.705	406
414.928	390
415.151	392
415.374	396
415.597	411
415.821	385
416.044	395
416.267	426
416.49	397
416.713	385
416.936	404
417.159	405
417.382	417
417.605	404
417.828	412
418.051	438
418.274	443
418.497	416
418.72	404
418.943	397
419.166	412
419.389	442
419.611	449
419.834	429
420.057	435
420.28	431
420.503	412
420.726	431
420.948	435
421.171	479
421.394	515
421.617	451
421.839	440
422.062	449
422.285	441
422.507	482
422.73	543
422.953	517
423.175	467
423.398	439
423.621	445
423.843	474
424.066	474
424.288	464
424.511	477
424.733	541
424.956	586
425.178	564
425.401	570
425.623	586
425.846	514
426.068	465
426.291	465
426.513	464
426.735	459
426.958	497
427.18	593
427.402	666
427.625	732
427.847	617
428.069	547
428.292	497
428.514	466
428.736	424
428.958	432
429.181	424
429.403	431
429.625	425
429.847	474
430.069	535
430.292	505
430.514	464
430.736	420
430.958	408
431.18	417
431.402	409
431.624	396
431.846	399
432.068	385
432.29	393
432.512	397
432.734	385
432.956	407
433.178	419
433.4	427
433.622	413
433.844	423
434.066	395
434.287	395
434.509	395
434.731	397
434.953	403
435.175	449
435.397	439
435.618	442
435.84	511
436.062	545
436.284	612
436.505	530
436.727	475
436.949	457
437.17	431
437.392	433
437.614	444
437.835	469
438.057	520
438.278	622
438.5	626
438.721	714
438.943	647
439.165	531
439.386	495
439.608	485
439.829	484
440.05	475
440.272	506
440.493	491
440.715	439
440.936	421
441.158	426
441.379	422
441.6	429
441.822	463
442.043	479
442.264	557
442.486	586
442.707	505
442.928	457
443.149	489
443.371	481
443.592	533
443.813	591
444.034	643
444.255	521
444.476	470
444.698	465
444.919	458
445.14	579
445.361	514
445.582	511
445.803	560
446.024	651
446.245	643
446.466	593
446.687	499
446.908	475
447.129	439
447.35	443
447.571	424
447.792	411
448.013	431
448.234	459
448.455	488
448.675	567
448.896	673
449.117	575
449.338	544
449.559	639
449.779	706
450	564
450.221	466
450.442	418
450.662	407
450.883	433
451.104	436
451.324	420
451.545	393
451.766	394
451.986	380
452.207	382
452.428	375
452.648	363
452.869	390
453.089	375
453.31	411
453.53	371
453.751	375
453.971	365
454.192	391
454.412	397
454.633	376
454.853	379
455.073	361
455.294	419
455.514	448
455.734	444
455.955	382
456.175	355
456.395	355
456.616	336
456.836	349
457.056	342
457.276	356
457.497	363
457.717	364
457.937	382
458.157	353
458.377	379
458.598	383
458.818	429
459.038	484
459.258	487
459.478	448
459.698	403
459.918	385
460.138	403
460.358	389
460.578	385
460.798	402
461.018	405
461.238	394
461.458	407
461.678	381
461.898	399
462.118	405
462.338	403
462.558	399
462.777	392
462.997	418
463.217	423
463.437	435
463.657	427
463.876	426
464.096	415
464.316	422
464.536	424
464.755	424
464.975	427
465.195	460
465.414	486
465.634	444
465.854	416
466.073	405
466.293	391
466.512	411
466.732	394
466.951	390
467.171	377
467.391	382
467.61	381
467.829	399
468.049	387
468.268	393
468.488	375
468.707	374
468.927	377
469.146	394
469.365	373
469.585	352
469.804	389
470.023	387
470.243	405
470.462	396
470.681	429
470.901	404
471.12	397
471.339	399
471.558	395
471.777	404
471.997	393
472.216	377
472.435	415
472.654	413
472.873	387
473.092	379
473.311	377
473.53	387
473.749	390
473.968	447
474.187	513
474.406	537
474.625	455
474.844	427
475.063	380
475.282	373
475.501	391
475.72	403
475.939	407
476.158	413
476.377	394
476.596	397
476.814	407
477.033	419
477.252	424
477.471	414
477.69	411
477.908	423
478.127	439
478.346	433
478.564	427
478.783	442
479.002	427
479.22	444
479.439	445
479.658	457
479.876	459
480.095	460
480.313	499
480.532	464
480.751	479
480.969	493
481.188	505
481.406	532
481.624	483
481.843	456
482.061	440
482.28	448
482.498	477
482.717	452
482.935	451
483.153	439
483.372	461
483.59	458
483.808	434
484.027	453
484.245	441
484.463	449
484.681	472
484.9	443
485.118	466
485.336	450
485.554	473
485.772	457
485.99	455
486.209	470
486.427	453
486.645	492
486.863	488
487.081	483
487.299	455
487.517	485
487.735	480
487.953	511
488.171	495
488.389	501
488.607	489
488.825	483
489.043	486
489.261	487
489.479	500
489.696	482
489.914	470
490.132	493
490.35	512
490.568	537
490.786	519
491.003	544
491.221	540
491.439	529
491.657	541
491.874	548
492.092	546
492.31	565
492.527	549
492.745	547
492.963	595
493.18	563
493.398	555
493.615	557
493.833	572
494.05	564
494.268	563
494.485	592
494.703	589
494.92	593
495.138	580
495.355	551
495.573	573
495.79	566
496.008	574
496.225	551
496.442	541
496.66	571
496.877	563
497.094	579
497.312	586
497.529	590
497.746	607
497.963	569
498.181	612
498.398	590
498.615	627
498.832	623
499.049	641
499.267	658
499.484	676
499.701	687
499.918	701
500.135	744
500.352	774
500.569	781
500.786	777
501.003	757
501.22	714
501.437	730
501.654	707
501.871	723
502.088	675
502.305	665
502.522	633
502.739	608
502.956	624
503.172	593
503.389	595
503.606	571
503.823	580
504.04	587
504.256	557
504.473	551
504.69	556
504.907	565
505.123	544
505.34	563
505.557	544
505.773	563
505.99	539
506.207	545
506.423	550
506.64	539
506.856	521
507.073	525
507.289	538
507.506	536
507.722	536
507.939	543
508.155	549
508.372	513
508.588	500
508.805	520
509.021	517
509.238	522
509.454	524
509.67	537
509.887	515
510.103	533
510.319	517
510.536	611
510.752	923
510.968	734
511.184	529
511.401	505
511.617	480
511.833	512
512.049	491
512.265	480
512.481	481
512.698	489
512.914	484
513.13	484
513.346	496
513.562	511
513.778	482
513.994	498
514.21	502
514.426	519
514.642	525
514.858	569
515.074	602
515.29	697
515.506	953
515.721	799
515.937	564
516.153	545
516.369	523
516.585	487
516.801	499
517.016	499
517.232	502
517.448	508
517.664	501
517.879	488
518.095	503
518.311	515
518.527	516
518.742	490
518.958	490
519.173	489
519.389	496
519.605	463
519.82	491
520.036	510
520.251	491
520.467	527
520.682	535
520.898	541
521.113	544
521.329	583
521.544	641
521.76	808
521.975	1246
522.19	1165
522.406	687
522.621	529
522.836	509
523.052	477
523.267	464
523.482	438
523.698	451
523.913	457
524.128	464
524.343	426
524.559	419
524.774	427
524.989	438
525.204	428
525.419	416
525.634	432
525.849	406
526.064	411
526.28	408
526.495	417
526.71	403
526.925	394
527.14	392
527.355	415
527.57	403
527.785	396
527.999	387
528.214	393
528.429	388
528.644	400
528.859	396
529.074	409
529.289	417
529.503	477
529.718	467
529.933	411
530.148	416
530.363	415
530.577	390
530.792	386
531.007	387
531.221	388
531.436	393
531.651	385
531.865	372
532.08	376
532.295	388
532.509	371
532.724	383
532.938	363
533.153	377
533.367	381
533.582	363
533.796	373
534.011	383
534.225	388
534.44	371
534.654	374
534.868	371
535.083	376
535.297	364
535.511	373
535.726	377
535.94	371
536.154	397
536.369	371
536.583	353
536.797	367
537.011	360
537.225	363
537.44	368
537.654	373
537.868	359
538.082	381
538.296	375
538.51	362
538.724	360
538.938	388
539.153	383
539.367	380
539.581	381
539.795	367
540.009	373
540.222	373
540.436	364
540.65	389
540.864	387
541.078	376
541.292	372
541.506	401
541.72	374
541.934	391
542.147	384
542.361	378
542.575	377
542.789	372
543.002	378
543.216	357
543.43	369
543.644	359
543.857	372
544.071	373
544.285	397
544.498	380
544.712	383
544.925	372
545.139	356
545.352	371
545.566	375
545.779	352
545.993	364
546.206	371
546.42	383
546.633	372
546.847	373
547.06	376
547.274	381
547.487	358
547.7	370
547.914	359
548.127	355
548.34	351
548.554	349
548.767	341
548.98	354
549.193	357
549.407	356
549.62	351
549.833	356
550.046	367
550.259	359
550.473	331
550.686	335
550.899	353
551.112	353
551.325	347
551.538	359
551.751	341
551.964	345
552.177	345
552.39	361
552.603	364
552.816	344
553.029	367
553.242	355
553.455	358
553.667	353
553.88	368
554.093	352
554.306	360
554.519	344
554.732	337
554.944	325
555.157	363
555.37	345
555.583	330
555.795	346
556.008	323
556.221	317
556.433	331
556.646	325
556.859	312
557.071	323
557.284	304
557.496	301
557.709	314
557.921	294
558.134	311
558.346	335
558.559	323
558.771	296
558.984	311
559.196	324
559.409	317
559.621	322
559.833	309
560.046	314
560.258	332
560.47	301
560.683	302
560.895	321
561.107	309
561.32	310
561.532	307
561.744	328
561.956	299
562.168	305
562.381	285
562.593	300
562.805	306
563.017	306
563.229	325
563.441	320
563.653	310
563.865	319
564.077	325
564.289	300
564.501	323
564.713	315
564.925	326
565.137	343
565.349	333
565.561	320
565.773	329
565.985	303
566.197	332
566.408	358
566.62	351
566.832	346
567.044	370
567.255	375
567.467	360
567.679	356
567.891	365
568.102	371
568.314	355
568.526	360
568.737	327
568.949	318
569.161	323
569.372	320
569.584	303
569.795	303
570.007	312
570.218	337
570.43	315
570.641	305
570.853	299
571.064	316
571.276	309
571.487	303
571.698	291
571.91	283
572.121	280
572.333	283
572.544	284
572.755	277
572.966	280
573.178	276
573.389	277
573.6	290
573.811	269
574.023	277
574.234	257
574.445	277
574.656	278
574.867	263
575.078	278
575.289	289
575.501	270
575.712	272
575.923	269
576.134	263
576.345	272
576.556	242
576.767	261
576.978	267
577.188	259
577.399	276
577.61	244
577.821	254
578.032	252
578.243	290
578.454	449
578.665	324
578.875	259
579.086	257
579.297	247
579.508	249
579.718	250
579.929	262
580.14	248
580.35	256
580.561	265
580.772	249
580.982	238
581.193	233
581.403	251
581.614	234
581.825	229
582.035	241
582.246	239
582.456	247
582.667	246
582.877	232
583.087	240
583.298	229
583.508	234
583.719	242
583.929	240
584.139	260
584.35	233
584.56	249
584.77	245
584.981	226
585.191	256
585.401	243
585.611	230
585.821	252
586.032	227
586.242	243
586.452	242
586.662	223
586.872	222
587.082	228
587.292	232
587.502	243
587.713	239
587.923	236
588.133	249
588.343	245
588.553	234
588.762	215
588.972	249
589.182	228
589.392	231
589.602	230
589.812	239
590.022	239
590.232	233
590.441	232
590.651	226
590.861	225
591.071	243
591.281	228
591.49	226
591.7	230
591.91	236
592.119	232
592.329	240
592.539	241
592.748	252
592.958	242
593.167	248
593.377	238
593.587	251
593.796	258
594.006	236
594.215	220
594.424	251
594.634	238
594.843	250
595.053	240
595.262	225
595.472	239
595.681	231
595.89	236
596.1	227
596.309	222
596.518	227
596.727	218
596.937	221
597.146	217
597.355	222
597.564	223
597.774	225
597.983	209
598.192	215
598.401	212
598.61	218
598.819	216
599.028	218
599.237	218
599.446	208
599.655	211
599.864	207
600.073	203
600.282	199
600.491	202
600.7	226
600.909	222
601.118	199
601.327	213
601.536	211
601.745	213
601.953	217
602.162	220
602.371	219
602.58	212
602.789	201
602.997	204
603.206	214
603.415	209
603.623	195
603.832	194
604.041	200
604.249	179
604.458	203
604.666	200
604.875	213
605.084	205
605.292	211
605.501	224
605.709	200
605.918	195
606.126	195
606.334	203
606.543	204
606.751	209
606.96	204
607.168	197
607.376	204
607.585	196
607.793	214
608.001	214
608.21	203
608.418	195
608.626	199
608.834	202
609.043	202
609.251	197
609.459	210
609.667	197
609.875	206
610.083	204
610.291	217
610.499	195
610.707	211
610.916	214
611.124	205
611.332	219
611.54	225
611.748	224
611.955	204
612.163	215
612.371	220
612.579	199
612.787	195
612.995	207
613.203	198
613.411	183
613.618	203
613.826	194
614.034	185
614.242	194
614.449	195
614.657	199
614.865	200
615.072	189
615.28	197
615.488	197
615.695	205
615.903	203
616.111	199
616.318	213
616.526	204
616.733	215
616.941	189
617.148	191
617.356	191
617.563	212
617.771	179
617.978	193
618.185	197
618.393	177
618.6	206
618.807	193
619.015	199
619.222	184
619.429	192
619.637	216
619.844	197
620.051	191
620.258	192
620.466	190
620.673	200
620.88	181
621.087	196
621.294	189
621.501	193
621.708	199
621.915	185
622.122	200
622.329	204
622.536	190
622.743	187
622.95	197
623.157	186
623.364	189
623.571	200
623.778	200
623.985	213
624.192	187
624.399	170
624.606	169
624.812	179
625.019	181
625.226	178
625.433	172
625.639	169
625.846	191
626.053	185
626.259	168
626.466	191
626.673	161
626.879	178
627.086	199
627.293	167
627.499	167
627.706	176
627.912	179
628.119	181
628.325	168
628.532	177
628.738	185
628.945	172
629.151	169
629.357	171
629.564	183
629.77	161
629.976	168
630.183	176
630.389	161
630.595	159
630.802	172
631.008	163
631.214	188
631.42	169
631.627	175
631.833	178
632.039	153
632.245	164
632.451	147
632.657	154
632.863	150
633.069	169
633.275	149
633.481	148
633.688	160
633.893	167
634.099	161
634.305	161
634.511	185
634.717	168
634.923	154
635.129	148
635.335	159
635.541	171
635.747	144
635.952	162
636.158	152
636.364	159
636.57	156
636.775	161
636.981	161
637.187	172
637.392	167
637.598	171
637.804	155
638.009	154
638.215	159
638.421	172
638.626	150
638.832	167
639.037	165
639.243	144
639.448	154
639.654	142
639.859	154
640.065	150
640.27	160
640.475	154
640.681	145
640.886	140
641.091	158
641.297	171
641.502	164
641.707	143
641.913	144
642.118	138
642.323	167
642.528	139
642.733	123
642.939	142
643.144	155
643.349	167
643.554	170
643.759	135
643.964	144
644.169	147
644.374	133
644.579	157
644.784	136
644.989	147
645.194	145
645.399	148
645.604	146
645.809	149
646.014	154
646.219	142
646.423	142
646.628	147
646.833	141
647.038	143
647.243	140
647.447	153
647.652	136
647.857	141
648.062	147
648.266	139
648.471	139
648.676	150
648.88	138
649.085	145
649.289	160
649.494	162
649.698	163
649.903	172
650.107	162
650.312	155
650.516	143
650.721	138
650.925	127
651.13	146
651.334	131
651.539	124
651.743	141
651.947	138
652.152	139
652.356	136
652.56	119
652.764	142
652.969	133
653.173	120
653.377	115
653.581	106
653.785	123
653.99	123
654.194	125
654.398	123
654.602	136
654.806	118
655.01	120
655.214	124
655.418	132
655.622	132
655.826	123
656.03	133
656.234	137
656.438	128
656.642	112
656.846	131
657.049	124
657.253	109
657.457	120
657.661	112
657.865	112
658.068	127
658.272	105
658.476	97
658.68	99
658.883	101
659.087	92
659.291	93
659.494	88
659.698	90
659.901	94
660.105	87
660.309	87
660.512	90
660.716	96
660.919	89
661.123	100
661.326	87
661.53	76
661.733	88
661.936	90
662.14	82
662.343	90
662.546	75
662.75	87
662.953	80
663.156	81
663.36	90
663.563	85
663.766	91
663.969	96
664.173	86
664.376	69
664.579	87
664.782	85
664.985	87
665.188	80
665.391	90
665.594	86
665.797	74
666	75
666.203	89
666.406	76
666.609	87
666.812	93
667.015	101
667.218	74
667.421	73
667.624	71
667.827	79
668.03	84
668.232	71
668.435	81
668.638	84
668.841	82
669.043	83
669.246	97
669.449	77
669.651	89
669.854	83
670.057	76
670.259	83
670.462	72
670.665	75
670.867	85
671.07	73
671.272	79
671.475	93
671.677	77
671.88	73
672.082	83
672.284	73
672.487	77
672.689	85
672.892	79
