Data from 1971.PennyLincolnUp.Lamp.En5.5.200Scan.071719.P1.Scan 2. Changed Angle._HRD10591_15-24-31-842.txt Node
Date: Thu Jul 18 15:24:31 EDT 2019
User: cochatt
Spectrometer: HR+D1059
Trigger mode: 1
Integration Time (sec): 1.000000E-1
Scans to average: 1
Electric dark correction enabled: true
Nonlinearity correction enabled: false
Boxcar width: 0
XAxis mode: Wavelengths
Number of Pixels in Spectrum: 2048
>>>>>Begin Spectral Data<<<<<
223.165	-17
223.4	-17
223.635	-17
223.869	-21
224.104	-13
224.338	-17
224.573	-16
224.808	-20
225.042	-8
225.277	-16
225.511	-4
225.746	13
225.98	9
226.215	2
226.449	18
226.683	36
226.918	28
227.152	26
227.387	34
227.621	30
227.856	49
228.09	46
228.324	47
228.559	62
228.793	69
229.027	123
229.262	131
229.496	132
229.73	143
229.964	190
230.199	150
230.433	145
230.667	136
230.901	134
231.136	118
231.37	124
231.604	126
231.838	142
232.072	123
232.306	112
232.541	134
232.775	113
233.009	109
233.243	121
233.477	121
233.711	130
233.945	126
234.179	128
234.413	126
234.647	127
234.881	130
235.115	136
235.349	126
235.583	132
235.817	133
236.051	136
236.285	149
236.519	140
236.753	143
236.987	163
237.221	221
237.455	298
237.689	223
237.922	160
238.156	169
238.39	162
238.624	157
238.858	129
239.091	132
239.325	140
239.559	141
239.793	144
240.027	165
240.26	163
240.494	188
240.728	159
240.961	161
241.195	168
241.429	145
241.662	162
241.896	133
242.13	151
242.363	155
242.597	144
242.83	155
243.064	175
243.298	151
243.531	135
243.765	133
243.998	152
244.232	140
244.465	164
244.699	143
244.932	155
245.166	151
245.399	160
245.633	151
245.866	168
246.099	152
246.333	156
246.566	179
246.8	155
247.033	161
247.266	175
247.5	179
247.733	174
247.966	186
248.2	200
248.433	171
248.666	186
248.899	208
249.133	233
249.366	234
249.599	243
249.832	226
250.066	204
250.299	204
250.532	209
250.765	227
250.998	245
251.231	276
251.465	247
251.698	233
251.931	240
252.164	224
252.397	232
252.63	229
252.863	221
253.096	245
253.329	272
253.562	271
253.795	248
254.028	256
254.261	235
254.494	263
254.727	306
254.96	328
255.193	320
255.426	312
255.659	288
255.892	271
256.124	266
256.357	270
256.59	246
256.823	253
257.056	249
257.289	251
257.521	240
257.754	236
257.987	236
258.22	235
258.452	233
258.685	236
258.918	235
259.151	245
259.383	267
259.616	269
259.849	266
260.081	266
260.314	295
260.547	293
260.779	274
261.012	265
261.244	247
261.477	243
261.71	254
261.942	264
262.175	261
262.407	271
262.64	248
262.872	245
263.105	217
263.337	237
263.57	223
263.802	229
264.035	237
264.267	227
264.499	233
264.732	219
264.964	228
265.197	236
265.429	227
265.661	230
265.894	216
266.126	218
266.358	236
266.591	245
266.823	240
267.055	232
267.287	236
267.52	247
267.752	249
267.984	225
268.216	254
268.448	254
268.681	254
268.913	257
269.145	288
269.377	302
269.609	290
269.841	304
270.073	297
270.306	327
270.538	366
270.77	367
271.002	333
271.234	322
271.466	325
271.698	342
271.93	343
272.162	345
272.394	351
272.626	351
272.858	335
273.09	324
273.322	303
273.553	290
273.785	296
274.017	281
274.249	298
274.481	297
274.713	284
274.945	288
275.176	279
275.408	289
275.64	296
275.872	271
276.104	286
276.335	278
276.567	287
276.799	307
277.031	315
277.262	333
277.494	347
277.726	349
277.957	327
278.189	293
278.421	297
278.652	267
278.884	282
279.115	251
279.347	297
279.579	293
279.81	278
280.042	280
280.273	280
280.505	276
280.736	278
280.968	280
281.199	287
281.431	299
281.662	283
281.894	273
282.125	293
282.356	309
282.588	331
282.819	342
283.051	290
283.282	280
283.513	281
283.745	277
283.976	300
284.207	302
284.439	294
284.67	296
284.901	300
285.132	284
285.364	286
285.595	284
285.826	280
286.057	279
286.288	263
286.52	279
286.751	284
286.982	265
287.213	270
287.444	279
287.675	315
287.906	307
288.138	305
288.369	309
288.6	313
288.831	302
289.062	314
289.293	299
289.524	285
289.755	296
289.986	271
290.217	285
290.448	286
290.679	293
290.91	299
291.141	278
291.371	290
291.602	291
291.833	283
292.064	286
292.295	287
292.526	293
292.757	283
292.987	276
293.218	294
293.449	316
293.68	307
293.91	294
294.141	265
294.372	302
294.603	294
294.833	318
295.064	291
295.295	300
295.525	286
295.756	299
295.987	325
296.217	367
296.448	347
296.679	326
296.909	302
297.14	295
297.37	302
297.601	304
297.831	313
298.062	305
298.292	312
298.523	308
298.753	328
298.984	316
299.214	311
299.445	315
299.675	318
299.905	304
300.136	322
300.366	315
300.597	307
300.827	318
301.057	321
301.288	322
301.518	345
301.748	331
301.979	327
302.209	327
302.439	313
302.669	336
302.9	337
303.13	327
303.36	321
303.59	339
303.82	345
304.051	327
304.281	313
304.511	338
304.741	324
304.971	330
305.201	342
305.431	344
305.661	336
305.891	318
306.121	327
306.352	350
306.582	359
306.812	355
307.042	345
307.272	328
307.502	315
307.731	319
307.961	349
308.191	339
308.421	348
308.651	357
308.881	356
309.111	357
309.341	360
309.571	344
309.8	379
310.03	376
310.26	391
310.49	400
310.72	405
310.949	428
311.179	437
311.409	410
311.639	412
311.868	409
312.098	414
312.328	400
312.557	451
312.787	467
313.017	457
313.246	419
313.476	417
313.706	395
313.935	401
314.165	417
314.394	441
314.624	425
314.853	411
315.083	417
315.312	414
315.542	390
315.771	382
316.001	395
316.23	393
316.46	399
316.689	413
316.919	410
317.148	395
317.377	425
317.607	417
317.836	407
318.065	414
318.295	403
318.524	404
318.753	376
318.983	409
319.212	398
319.441	425
319.67	422
319.9	416
320.129	399
320.358	396
320.587	391
320.816	419
321.046	447
321.275	451
321.504	447
321.733	441
321.962	436
322.191	457
322.42	485
322.649	496
322.878	526
323.108	507
323.337	564
323.566	600
323.795	645
324.024	699
324.253	886
324.482	1275
324.71	2016
324.939	2939
325.168	2551
325.397	1276
325.626	813
325.855	690
326.084	599
326.313	556
326.542	589
326.77	665
326.999	788
327.228	1108
327.457	1752
327.686	2132
327.914	1403
328.143	917
328.372	779
328.6	728
328.829	660
329.058	673
329.287	718
329.515	667
329.744	601
329.972	587
330.201	632
330.43	666
330.658	702
330.887	743
331.115	725
331.344	626
331.572	593
331.801	565
332.03	544
332.258	525
332.486	492
332.715	500
332.943	492
333.172	477
333.4	481
333.629	502
333.857	512
334.085	480
334.314	573
334.542	580
334.771	606
334.999	549
335.227	502
335.455	486
335.684	480
335.912	477
336.14	449
336.369	468
336.597	504
336.825	487
337.053	460
337.281	457
337.51	445
337.738	460
337.966	468
338.194	490
338.422	490
338.65	472
338.878	465
339.106	469
339.334	461
339.562	442
339.79	452
340.018	444
340.246	455
340.474	479
340.702	463
340.93	447
341.158	458
341.386	455
341.614	455
341.842	472
342.07	453
342.298	474
342.526	456
342.754	435
342.981	453
343.209	400
343.437	433
343.665	442
343.893	447
344.12	448
344.348	457
344.576	460
344.804	471
345.031	476
345.259	487
345.487	469
345.714	463
345.942	461
346.17	455
346.397	451
346.625	465
346.853	460
347.08	450
347.308	458
347.535	461
347.763	471
347.99	467
348.218	471
348.445	479
348.673	493
348.9	455
349.128	430
349.355	464
349.583	445
349.81	421
350.037	426
350.265	444
350.492	425
350.72	438
350.947	455
351.174	445
351.402	487
351.629	441
351.856	442
352.083	457
352.311	482
352.538	488
352.765	482
352.992	473
353.22	470
353.447	461
353.674	446
353.901	419
354.128	432
354.355	437
354.583	414
354.81	423
355.037	428
355.264	407
355.491	424
355.718	416
355.945	411
356.172	415
356.399	417
356.626	398
356.853	414
357.08	409
357.307	419
357.534	414
357.761	415
357.988	396
358.215	403
358.441	423
358.668	420
358.895	406
359.122	445
359.349	439
359.576	465
359.802	491
360.029	536
360.256	562
360.483	505
360.709	465
360.936	459
361.163	457
361.39	479
361.616	475
361.843	464
362.07	468
362.296	441
362.523	477
362.749	440
362.976	447
363.203	428
363.429	431
363.656	453
363.882	432
364.109	437
364.335	434
364.562	454
364.788	434
365.015	449
365.241	416
365.468	428
365.694	437
365.92	454
366.147	430
366.373	417
366.599	415
366.826	432
367.052	417
367.278	420
367.505	427
367.731	432
367.957	441
368.184	443
368.41	450
368.636	449
368.862	460
369.089	457
369.315	428
369.541	456
369.767	434
369.993	444
370.219	428
370.445	427
370.672	426
370.898	423
371.124	423
371.35	402
371.576	435
371.802	420
372.028	433
372.254	423
372.48	417
372.706	420
372.932	422
373.158	457
373.384	432
373.61	430
373.835	451
374.061	435
374.287	428
374.513	439
374.739	413
374.965	439
375.191	429
375.416	432
375.642	410
375.868	419
376.094	421
376.319	439
376.545	415
376.771	428
376.997	426
377.222	437
377.448	417
377.674	424
377.899	437
378.125	428
378.35	437
378.576	418
378.802	435
379.027	416
379.253	414
379.478	398
379.704	416
379.929	409
380.155	435
380.38	431
380.606	420
380.831	431
381.057	423
381.282	438
381.507	411
381.733	441
381.958	444
382.184	428
382.409	442
382.634	431
382.86	435
383.085	440
383.31	439
383.535	453
383.761	453
383.986	448
384.211	455
384.436	427
384.662	442
384.887	455
385.112	437
385.337	464
385.562	445
385.787	457
386.013	477
386.238	475
386.463	472
386.688	467
386.913	450
387.138	485
387.363	446
387.588	471
387.813	488
388.038	453
388.263	458
388.488	454
388.713	459
388.938	453
389.163	464
389.387	470
389.612	452
389.837	473
390.062	461
390.287	446
390.512	459
390.736	445
390.961	459
391.186	460
391.411	478
391.636	452
391.86	463
392.085	474
392.31	470
392.534	465
392.759	456
392.984	473
393.208	477
393.433	472
393.658	472
393.882	488
394.107	460
394.331	494
394.556	446
394.78	463
395.005	467
395.229	459
395.454	476
395.678	478
395.903	496
396.127	514
396.352	501
396.576	492
396.801	503
397.025	493
397.249	471
397.474	484
397.698	499
397.922	487
398.147	529
398.371	538
398.595	527
398.82	504
399.044	536
399.268	545
399.492	556
399.717	572
399.941	619
400.165	635
400.389	657
400.613	632
400.837	572
401.062	525
401.286	519
401.51	522
401.734	549
401.958	549
402.182	558
402.406	561
402.63	569
402.854	556
403.078	563
403.302	549
403.526	557
403.75	545
403.974	551
404.198	559
404.422	558
404.645	585
404.869	584
405.093	619
405.317	647
405.541	677
405.765	624
405.988	609
406.212	607
406.436	663
406.66	655
406.883	597
407.107	631
407.331	672
407.555	751
407.778	758
408.002	708
408.226	637
408.449	635
408.673	617
408.896	624
409.12	702
409.344	653
409.567	598
409.791	579
410.014	591
410.238	558
410.461	569
410.685	565
410.908	587
411.132	649
411.355	696
411.578	636
411.802	584
412.025	576
412.249	568
412.472	601
412.695	666
412.919	632
413.142	581
413.365	563
413.589	544
413.812	545
414.035	546
414.258	535
414.482	528
414.705	522
414.928	518
415.151	505
415.374	538
415.597	544
415.821	528
416.044	549
416.267	558
416.49	551
416.713	520
416.936	540
417.159	563
417.382	558
417.605	550
417.828	564
418.051	592
418.274	576
418.497	553
418.72	554
418.943	531
419.166	593
419.389	582
419.611	585
419.834	539
420.057	558
420.28	583
420.503	581
420.726	584
420.948	590
421.171	659
421.394	649
421.617	603
421.839	573
422.062	586
422.285	611
422.507	680
422.73	750
422.953	731
423.175	649
423.398	615
423.621	619
423.843	622
424.066	641
424.288	624
424.511	666
424.733	731
424.956	806
425.178	767
425.401	785
425.623	806
425.846	678
426.068	632
426.291	625
426.513	651
426.735	648
426.958	696
427.18	809
427.402	951
427.625	1036
427.847	973
428.069	841
428.292	733
428.514	647
428.736	645
428.958	638
429.181	597
429.403	604
429.625	593
429.847	673
430.069	730
430.292	729
430.514	630
430.736	584
430.958	571
431.18	560
431.402	571
431.624	548
431.846	547
432.068	545
432.29	553
432.512	559
432.734	572
432.956	558
433.178	585
433.4	588
433.622	578
433.844	557
434.066	553
434.287	556
434.509	571
434.731	563
434.953	585
435.175	593
435.397	630
435.618	649
435.84	716
436.062	810
436.284	927
436.505	737
436.727	677
436.949	612
437.17	597
437.392	610
437.614	616
437.835	677
438.057	786
438.278	914
438.5	922
438.721	939
438.943	939
439.165	752
439.386	721
439.608	700
439.829	695
440.05	725
440.272	771
440.493	703
440.715	657
440.936	633
441.158	608
441.379	613
441.6	637
441.822	656
442.043	714
442.264	793
442.486	841
442.707	710
442.928	695
443.149	655
443.371	693
443.592	759
443.813	885
444.034	921
444.255	795
444.476	677
444.698	633
444.919	638
445.14	779
445.361	721
445.582	718
445.803	797
446.024	897
446.245	915
446.466	840
446.687	739
446.908	663
447.129	620
447.35	607
447.571	600
447.792	599
448.013	622
448.234	633
448.455	713
448.675	829
448.896	955
449.117	835
449.338	788
449.559	894
449.779	1007
450	826
450.221	704
450.442	644
450.662	603
450.883	621
451.104	632
451.324	635
451.545	610
451.766	573
451.986	532
452.207	529
452.428	545
452.648	542
452.869	550
453.089	551
453.31	570
453.53	551
453.751	535
453.971	548
454.192	587
454.412	553
454.633	559
454.853	556
455.073	546
455.294	578
455.514	635
455.734	635
455.955	555
456.175	521
456.395	501
456.616	523
456.836	507
457.056	503
457.276	477
457.497	486
457.717	503
457.937	505
458.157	510
458.377	521
458.598	540
458.818	640
459.038	741
459.258	773
459.478	631
459.698	593
459.918	579
460.138	548
460.358	576
460.578	546
460.798	581
461.018	553
461.238	535
461.458	544
461.678	548
461.898	524
462.118	552
462.338	542
462.558	560
462.777	547
462.997	564
463.217	561
463.437	573
463.657	555
463.876	574
464.096	573
464.316	563
464.536	583
464.755	577
464.975	574
465.195	662
465.414	771
465.634	671
465.854	629
466.073	617
466.293	576
466.512	555
466.732	543
466.951	526
467.171	548
467.391	525
467.61	556
467.829	579
468.049	568
468.268	574
468.488	559
468.707	539
468.927	524
469.146	529
469.365	540
469.585	544
469.804	554
470.023	552
470.243	555
470.462	548
470.681	610
470.901	586
471.12	546
471.339	560
471.558	553
471.777	572
471.997	537
472.216	547
472.435	600
472.654	579
472.873	544
473.092	566
473.311	553
473.53	558
473.749	576
473.968	605
474.187	744
474.406	796
474.625	629
474.844	582
475.063	560
475.282	567
475.501	573
475.72	567
475.939	565
476.158	569
476.377	589
476.596	586
476.814	583
477.033	595
477.252	611
477.471	590
477.69	596
477.908	600
478.127	607
478.346	598
478.564	604
478.783	609
479.002	638
479.22	611
479.439	632
479.658	661
479.876	666
480.095	665
480.313	737
480.532	697
480.751	698
480.969	682
481.188	791
481.406	826
481.624	740
481.843	700
482.061	698
482.28	670
482.498	660
482.717	662
482.935	660
483.153	652
483.372	661
483.59	663
483.808	665
484.027	671
484.245	704
484.463	687
484.681	687
484.9	674
485.118	669
485.336	663
485.554	693
485.772	673
485.99	667
486.209	663
486.427	681
486.645	705
486.863	727
487.081	750
487.299	730
487.517	736
487.735	698
487.953	721
488.171	739
488.389	715
488.607	732
488.825	751
489.043	712
489.261	724
489.479	744
489.696	732
489.914	729
490.132	740
490.35	781
490.568	746
490.786	793
491.003	786
491.221	808
491.439	831
491.657	835
491.874	849
492.092	860
492.31	831
492.527	867
492.745	864
492.963	853
493.18	877
493.398	860
493.615	867
493.833	883
494.05	869
494.268	896
494.485	883
494.703	892
494.92	867
495.138	867
495.355	865
495.573	892
495.79	877
496.008	889
496.225	891
496.442	894
496.66	883
496.877	853
497.094	860
497.312	872
497.529	858
497.746	903
497.963	895
498.181	917
498.398	909
498.615	944
498.832	930
499.049	935
499.267	942
499.484	949
499.701	983
499.918	999
500.135	1035
500.352	1051
500.569	1047
500.786	1070
501.003	1059
501.22	1067
501.437	1023
501.654	1024
501.871	1041
502.088	1013
502.305	971
502.522	942
502.739	972
502.956	888
503.172	917
503.389	890
503.606	896
503.823	920
504.04	882
504.256	874
504.473	857
504.69	844
504.907	866
505.123	837
505.34	850
505.557	833
505.773	848
505.99	847
506.207	857
506.423	848
506.64	831
506.856	834
507.073	808
507.289	805
507.506	824
507.722	842
507.939	859
508.155	834
508.372	803
508.588	804
508.805	806
509.021	809
509.238	836
509.454	843
509.67	836
509.887	813
510.103	793
510.319	824
510.536	956
510.752	1652
510.968	1331
511.184	846
511.401	825
511.617	782
511.833	803
512.049	761
512.265	773
512.481	774
512.698	771
512.914	782
513.13	750
513.346	760
513.562	771
513.778	763
513.994	765
514.21	786
514.426	857
514.642	927
514.858	958
515.074	998
515.29	1221
515.506	1836
515.721	1510
515.937	987
516.153	868
516.369	855
516.585	831
516.801	796
517.016	784
517.232	807
517.448	812
517.664	784
517.879	786
518.095	792
518.311	760
518.527	759
518.742	746
518.958	759
519.173	757
519.389	764
519.605	763
519.82	780
520.036	788
520.251	848
520.467	876
520.682	860
520.898	883
521.113	919
521.329	982
521.544	1135
521.76	1439
521.975	2496
522.19	2370
522.406	1281
522.621	981
522.836	848
523.052	827
523.267	764
523.482	736
523.698	712
523.913	738
524.128	715
524.343	728
524.559	679
524.774	669
524.989	686
525.204	657
525.419	663
525.634	685
525.849	647
526.064	643
526.28	638
526.495	614
526.71	629
526.925	633
527.14	604
527.355	628
527.57	598
527.785	603
527.999	605
528.214	592
528.429	631
528.644	615
528.859	596
529.074	621
529.289	667
529.503	747
529.718	751
529.933	684
530.148	631
530.363	636
530.577	612
530.792	601
531.007	569
531.221	592
531.436	583
531.651	574
531.865	591
532.08	588
532.295	576
532.509	571
532.724	587
532.938	590
533.153	563
533.367	565
533.582	565
533.796	575
534.011	565
534.225	553
534.44	562
534.654	540
534.868	559
535.083	563
535.297	563
535.511	566
535.726	570
535.94	590
536.154	579
536.369	584
536.583	552
536.797	553
537.011	560
537.225	548
537.44	545
537.654	590
537.868	541
538.082	567
538.296	548
538.51	549
538.724	551
538.938	538
539.153	541
539.367	558
539.581	549
539.795	543
540.009	556
540.222	534
540.436	558
540.65	563
540.864	572
541.078	573
541.292	576
541.506	592
541.72	555
541.934	534
542.147	543
542.361	566
542.575	559
542.789	522
543.002	545
543.216	537
543.43	534
543.644	548
543.857	569
544.071	561
544.285	545
544.498	543
544.712	523
544.925	521
545.139	547
545.352	541
545.566	546
545.779	524
545.993	554
546.206	527
546.42	541
546.633	531
546.847	538
547.06	524
547.274	531
547.487	527
547.7	529
547.914	496
548.127	526
548.34	519
548.554	518
548.767	516
548.98	511
549.193	502
549.407	491
549.62	511
549.833	499
550.046	518
550.259	523
550.473	502
550.686	511
550.899	519
551.112	508
551.325	522
551.538	524
551.751	505
551.964	501
552.177	513
552.39	500
552.603	522
552.816	500
553.029	526
553.242	506
553.455	543
553.667	535
553.88	535
554.093	524
554.306	539
554.519	497
554.732	495
554.944	511
555.157	483
555.37	474
555.583	478
555.795	480
556.008	482
556.221	492
556.433	471
556.646	465
556.859	463
557.071	462
557.284	468
557.496	469
557.709	449
557.921	455
558.134	492
558.346	464
558.559	465
558.771	447
558.984	441
559.196	447
559.409	481
559.621	491
559.833	453
560.046	456
560.258	453
560.47	462
560.683	450
560.895	459
561.107	445
561.32	442
561.532	455
561.744	452
561.956	443
562.168	468
562.381	456
562.593	453
562.805	445
563.017	435
563.229	468
563.441	440
563.653	463
563.865	435
564.077	451
564.289	464
564.501	465
564.713	467
564.925	476
565.137	474
565.349	470
565.561	471
565.773	469
565.985	489
566.197	489
566.408	511
566.62	519
566.832	519
567.044	513
567.255	517
567.467	507
567.679	528
567.891	525
568.102	517
568.314	512
568.526	499
568.737	489
568.949	490
569.161	447
569.372	452
569.584	441
569.795	466
570.007	465
570.218	518
570.43	500
570.641	444
570.853	414
571.064	403
571.276	405
571.487	397
571.698	416
571.91	413
572.121	417
572.333	388
572.544	383
572.755	392
572.966	419
573.178	395
573.389	401
573.6	405
573.811	395
574.023	421
574.234	397
574.445	384
574.656	389
574.867	384
575.078	407
575.289	385
575.501	397
575.712	371
575.923	387
576.134	378
576.345	391
576.556	379
576.767	379
576.978	392
577.188	368
577.399	370
577.61	381
577.821	388
578.032	395
578.243	446
578.454	748
578.665	532
578.875	405
579.086	380
579.297	380
579.508	373
579.718	382
579.929	358
580.14	357
580.35	355
580.561	364
580.772	347
580.982	345
581.193	345
581.403	373
581.614	360
581.825	365
582.035	356
582.246	365
582.456	356
582.667	352
582.877	350
583.087	343
583.298	348
583.508	352
583.719	329
583.929	347
584.139	346
584.35	333
584.56	348
584.77	365
584.981	330
585.191	352
585.401	356
585.611	335
585.821	360
586.032	369
586.242	340
586.452	343
586.662	320
586.872	341
587.082	339
587.292	347
587.502	331
587.713	353
587.923	329
588.133	328
588.343	323
588.553	322
588.762	333
588.972	323
589.182	327
589.392	335
589.602	328
589.812	328
590.022	329
590.232	345
590.441	320
590.651	333
590.861	323
591.071	330
591.281	335
591.49	335
591.7	345
591.91	328
592.119	317
592.329	334
592.539	353
592.748	338
592.958	336
593.167	346
593.377	352
593.587	340
593.796	343
594.006	327
594.215	337
594.424	341
594.634	337
594.843	337
595.053	333
595.262	336
595.472	335
595.681	315
595.89	334
596.1	319
596.309	305
596.518	311
596.727	310
596.937	325
597.146	309
597.355	317
597.564	326
597.774	323
597.983	310
598.192	311
598.401	296
598.61	295
598.819	297
599.028	293
599.237	303
599.446	298
599.655	317
599.864	295
600.073	323
600.282	309
600.491	298
600.7	298
600.909	303
601.118	307
601.327	280
601.536	286
601.745	295
601.953	297
602.162	298
602.371	307
602.58	297
602.789	285
602.997	298
603.206	312
603.415	281
603.623	273
603.832	296
604.041	295
604.249	283
604.458	282
604.666	285
604.875	262
605.084	275
605.292	288
605.501	301
605.709	286
605.918	272
606.126	291
606.334	274
606.543	292
606.751	295
606.96	281
607.168	279
607.376	279
607.585	287
607.793	278
608.001	285
608.21	266
608.418	288
608.626	271
608.834	291
609.043	282
609.251	280
609.459	277
609.667	273
609.875	283
610.083	280
610.291	268
610.499	278
610.707	272
610.916	265
611.124	296
611.332	276
611.54	301
611.748	283
611.955	294
612.163	267
612.371	267
612.579	270
612.787	281
612.995	283
613.203	261
613.411	280
613.618	293
613.826	285
614.034	284
614.242	292
614.449	262
614.657	267
614.865	280
615.072	274
615.28	279
615.488	277
615.695	265
615.903	273
616.111	255
616.318	272
616.526	282
616.733	264
616.941	252
617.148	256
617.356	281
617.563	280
617.771	287
617.978	275
618.185	266
618.393	275
618.6	273
618.807	276
619.015	269
619.222	269
619.429	252
619.637	273
619.844	248
620.051	267
620.258	259
620.466	256
620.673	267
620.88	239
621.087	239
621.294	264
621.501	270
621.708	267
621.915	265
622.122	262
622.329	264
622.536	260
622.743	238
622.95	241
623.157	259
623.364	253
623.571	253
623.778	261
623.985	266
624.192	231
624.399	244
624.606	253
624.812	249
625.019	254
625.226	231
625.433	252
625.639	257
625.846	241
626.053	243
626.259	230
626.466	243
626.673	248
626.879	230
627.086	224
627.293	259
627.499	221
627.706	231
627.912	240
628.119	254
628.325	237
628.532	219
628.738	224
628.945	240
629.151	245
629.357	228
629.564	231
629.77	240
629.976	217
630.183	215
630.389	228
630.595	229
630.802	215
631.008	213
631.214	224
631.42	224
631.627	239
631.833	217
632.039	215
632.245	205
632.451	228
632.657	207
632.863	215
633.069	240
633.275	227
633.481	205
633.688	203
633.893	210
634.099	220
634.305	231
634.511	216
634.717	217
634.923	201
635.129	211
635.335	203
635.541	206
635.747	205
635.952	196
636.158	209
636.364	202
636.57	211
636.775	210
636.981	198
637.187	207
637.392	189
637.598	197
637.804	206
638.009	192
638.215	208
638.421	209
638.626	204
638.832	196
639.037	195
639.243	169
639.448	179
639.654	192
639.859	182
640.065	191
640.27	193
640.475	188
640.681	191
640.886	213
641.091	205
641.297	204
641.502	194
641.707	191
641.913	185
642.118	201
642.323	200
642.528	200
642.733	199
642.939	187
643.144	174
643.349	205
643.554	191
643.759	176
643.964	181
644.169	182
644.374	176
644.579	186
644.784	202
644.989	183
645.194	190
645.399	180
645.604	187
645.809	187
646.014	177
646.219	172
646.423	187
646.628	179
646.833	184
647.038	181
647.243	210
647.447	198
647.652	173
647.857	172
648.062	172
648.266	191
648.471	190
648.676	196
648.88	181
649.085	188
649.289	186
649.494	204
649.698	219
649.903	215
650.107	197
650.312	183
650.516	175
650.721	183
650.925	170
651.13	167
651.334	177
651.539	159
651.743	161
651.947	159
652.152	158
652.356	154
652.56	153
652.764	159
652.969	165
653.173	141
653.377	146
653.581	168
653.785	153
653.99	159
654.194	146
654.398	155
654.602	138
654.806	144
655.01	149
655.214	150
655.418	152
655.622	141
655.826	141
656.03	146
656.234	150
656.438	155
656.642	140
656.846	129
657.049	134
657.253	113
657.457	142
657.661	129
657.865	121
658.068	124
658.272	116
658.476	108
658.68	111
658.883	114
659.087	111
659.291	117
659.494	99
659.698	93
659.901	103
660.105	100
660.309	99
660.512	94
660.716	108
660.919	87
661.123	92
661.326	104
661.53	82
661.733	90
661.936	90
662.14	103
662.343	72
662.546	97
662.75	84
662.953	84
663.156	87
663.36	83
663.563	95
663.766	72
663.969	84
664.173	72
664.376	102
664.579	92
664.782	90
664.985	90
665.188	84
665.391	79
665.594	79
665.797	88
666	74
666.203	75
666.406	82
666.609	92
666.812	77
667.015	85
667.218	85
667.421	78
667.624	89
667.827	68
668.03	80
668.232	84
668.435	87
668.638	78
668.841	78
669.043	90
669.246	82
669.449	92
669.651	78
669.854	79
670.057	88
670.259	80
670.462	89
670.665	81
670.867	92
671.07	88
671.272	84
671.475	80
671.677	88
671.88	78
672.082	86
672.284	89
672.487	72
672.689	87
672.892	88
