Data from 1971.PennyLincolnUp.Lamp.En5.5.200Scan.071719.P1.Scan 2. Changed Angle._HRD10591_15-25-23-843.txt Node
Date: Thu Jul 18 15:25:23 EDT 2019
User: cochatt
Spectrometer: HR+D1059
Trigger mode: 1
Integration Time (sec): 1.000000E-1
Scans to average: 1
Electric dark correction enabled: true
Nonlinearity correction enabled: false
Boxcar width: 0
XAxis mode: Wavelengths
Number of Pixels in Spectrum: 2048
>>>>>Begin Spectral Data<<<<<
223.165	-20
223.4	-20
223.635	-20
223.869	-17
224.104	-6
224.338	-22
224.573	-14
224.808	-13
225.042	-7
225.277	-7
225.511	-7
225.746	7
225.98	-3
226.215	13
226.449	13
226.683	23
226.918	37
227.152	23
227.387	43
227.621	43
227.856	49
228.09	46
228.324	58
228.559	50
228.793	63
229.027	111
229.262	130
229.496	136
229.73	158
229.964	183
230.199	159
230.433	137
230.667	129
230.901	123
231.136	112
231.37	125
231.604	131
231.838	132
232.072	131
232.306	133
232.541	128
232.775	129
233.009	138
233.243	129
233.477	114
233.711	124
233.945	135
234.179	122
234.413	127
234.647	137
234.881	121
235.115	121
235.349	142
235.583	142
235.817	142
236.051	134
236.285	149
236.519	135
236.753	169
236.987	184
237.221	223
237.455	297
237.689	230
237.922	171
238.156	162
238.39	159
238.624	137
238.858	159
239.091	126
239.325	148
239.559	146
239.793	142
240.027	156
240.26	169
240.494	188
240.728	167
240.961	177
241.195	142
241.429	166
241.662	174
241.896	145
242.13	163
242.363	158
242.597	149
242.83	162
243.064	174
243.298	160
243.531	145
243.765	147
243.998	150
244.232	152
244.465	160
244.699	178
244.932	161
245.166	161
245.399	153
245.633	178
245.866	155
246.099	162
246.333	166
246.566	160
246.8	144
247.033	172
247.266	178
247.5	186
247.733	207
247.966	185
248.2	174
248.433	190
248.666	205
248.899	217
249.133	226
249.366	243
249.599	228
249.832	212
250.066	216
250.299	222
250.532	210
250.765	235
250.998	247
251.231	290
251.465	229
251.698	240
251.931	237
252.164	226
252.397	218
252.63	229
252.863	233
253.096	248
253.329	253
253.562	259
253.795	257
254.028	243
254.261	251
254.494	274
254.727	318
254.96	342
255.193	327
255.426	302
255.659	301
255.892	270
256.124	265
256.357	269
256.59	260
256.823	239
257.056	253
257.289	251
257.521	234
257.754	249
257.987	241
258.22	232
258.452	230
258.685	242
258.918	237
259.151	235
259.383	248
259.616	234
259.849	269
260.081	263
260.314	261
260.547	296
260.779	286
261.012	255
261.244	262
261.477	249
261.71	254
261.942	257
262.175	252
262.407	263
262.64	252
262.872	238
263.105	232
263.337	237
263.57	214
263.802	218
264.035	224
264.267	230
264.499	225
264.732	231
264.964	225
265.197	245
265.429	234
265.661	236
265.894	253
266.126	237
266.358	233
266.591	222
266.823	238
267.055	249
267.287	265
267.52	245
267.752	250
267.984	227
268.216	251
268.448	248
268.681	248
268.913	252
269.145	284
269.377	297
269.609	314
269.841	297
270.073	303
270.306	329
270.538	354
270.77	338
271.002	344
271.234	342
271.466	331
271.698	336
271.93	375
272.162	370
272.394	373
272.626	324
272.858	309
273.09	315
273.322	309
273.553	290
273.785	301
274.017	296
274.249	301
274.481	285
274.713	271
274.945	276
275.176	297
275.408	305
275.64	293
275.872	306
276.104	289
276.335	283
276.567	301
276.799	315
277.031	322
277.262	345
277.494	340
277.726	322
277.957	321
278.189	313
278.421	285
278.652	296
278.884	290
279.115	294
279.347	265
279.579	278
279.81	265
280.042	275
280.273	280
280.505	271
280.736	264
280.968	285
281.199	261
281.431	263
281.662	286
281.894	277
282.125	287
282.356	318
282.588	320
282.819	323
283.051	310
283.282	274
283.513	279
283.745	287
283.976	274
284.207	305
284.439	291
284.67	280
284.901	289
285.132	275
285.364	274
285.595	291
285.826	303
286.057	301
286.288	293
286.52	279
286.751	281
286.982	288
287.213	291
287.444	305
287.675	284
287.906	311
288.138	313
288.369	300
288.6	299
288.831	321
289.062	289
289.293	288
289.524	306
289.755	291
289.986	306
290.217	284
290.448	297
290.679	288
290.91	287
291.141	298
291.371	293
291.602	289
291.833	278
292.064	285
292.295	271
292.526	281
292.757	297
292.987	299
293.218	290
293.449	294
293.68	301
293.91	293
294.141	289
294.372	303
294.603	290
294.833	299
295.064	302
295.295	295
295.525	293
295.756	295
295.987	300
296.217	360
296.448	361
296.679	321
296.909	305
297.14	302
297.37	305
297.601	312
297.831	298
298.062	304
298.292	305
298.523	307
298.753	310
298.984	300
299.214	301
299.445	297
299.675	312
299.905	309
300.136	303
300.366	313
300.597	317
300.827	320
301.057	316
301.288	343
301.518	325
301.748	324
301.979	316
302.209	339
302.439	337
302.669	319
302.9	331
303.13	335
303.36	350
303.59	343
303.82	343
304.051	343
304.281	329
304.511	324
304.741	334
304.971	329
305.201	328
305.431	342
305.661	329
305.891	325
306.121	330
306.352	350
306.582	325
306.812	339
307.042	359
307.272	356
307.502	326
307.731	362
307.961	348
308.191	337
308.421	330
308.651	339
308.881	345
309.111	359
309.341	383
309.571	354
309.8	377
310.03	386
310.26	408
310.49	406
310.72	407
310.949	429
311.179	424
311.409	399
311.639	401
311.868	407
312.098	395
312.328	411
312.557	413
312.787	446
313.017	434
313.246	421
313.476	381
313.706	401
313.935	415
314.165	433
314.394	434
314.624	421
314.853	426
315.083	421
315.312	401
315.542	385
315.771	382
316.001	414
316.23	380
316.46	409
316.689	389
316.919	419
317.148	413
317.377	415
317.607	394
317.836	391
318.065	403
318.295	393
318.524	393
318.753	401
318.983	397
319.212	402
319.441	406
319.67	389
319.9	398
320.129	408
320.358	403
320.587	410
320.816	402
321.046	425
321.275	421
321.504	438
321.733	425
321.962	425
322.191	458
322.42	489
322.649	520
322.878	527
323.108	525
323.337	562
323.566	599
323.795	638
324.024	705
324.253	885
324.482	1319
324.71	2030
324.939	2922
325.168	2565
325.397	1294
325.626	845
325.855	685
326.084	609
326.313	620
326.542	588
326.77	663
326.999	770
327.228	1118
327.457	1747
327.686	2162
327.914	1447
328.143	900
328.372	777
328.6	707
328.829	693
329.058	702
329.287	695
329.515	638
329.744	579
329.972	601
330.201	622
330.43	682
330.658	701
330.887	748
331.115	722
331.344	600
331.572	553
331.801	551
332.03	543
332.258	510
332.486	490
332.715	513
332.943	494
333.172	482
333.4	488
333.629	498
333.857	505
334.085	530
334.314	526
334.542	590
334.771	610
334.999	558
335.227	507
335.455	482
335.684	497
335.912	467
336.14	454
336.369	447
336.597	470
336.825	485
337.053	469
337.281	448
337.51	457
337.738	437
337.966	461
338.194	468
338.422	447
338.65	459
338.878	454
339.106	443
339.334	455
339.562	439
339.79	445
340.018	452
340.246	447
340.474	474
340.702	453
340.93	448
341.158	463
341.386	424
341.614	474
341.842	443
342.07	433
342.298	443
342.526	419
342.754	448
342.981	446
343.209	430
343.437	451
343.665	443
343.893	427
344.12	443
344.348	437
344.576	438
344.804	467
345.031	473
345.259	494
345.487	491
345.714	485
345.942	466
346.17	444
346.397	450
346.625	447
346.853	457
347.08	446
347.308	451
347.535	458
347.763	448
347.99	489
348.218	453
348.445	476
348.673	481
348.9	465
349.128	447
349.355	441
349.583	437
349.81	430
350.037	441
350.265	432
350.492	437
350.72	453
350.947	452
351.174	464
351.402	468
351.629	449
351.856	478
352.083	485
352.311	488
352.538	502
352.765	495
352.992	474
353.22	453
353.447	453
353.674	437
353.901	431
354.128	442
354.355	418
354.583	409
354.81	415
355.037	399
355.264	393
355.491	394
355.718	399
355.945	391
356.172	424
356.399	388
356.626	406
356.853	408
357.08	414
357.307	402
357.534	407
357.761	415
357.988	399
358.215	409
358.441	410
358.668	420
358.895	421
359.122	427
359.349	446
359.576	471
359.802	491
360.029	536
360.256	540
360.483	528
360.709	473
360.936	451
361.163	455
361.39	472
361.616	479
361.843	460
362.07	461
362.296	480
362.523	463
362.749	457
362.976	443
363.203	462
363.429	434
363.656	458
363.882	434
364.109	435
364.335	427
364.562	410
364.788	439
365.015	439
365.241	441
365.468	416
365.694	446
365.92	453
366.147	457
366.373	419
366.599	430
366.826	424
367.052	420
367.278	420
367.505	440
367.731	430
367.957	422
368.184	424
368.41	440
368.636	451
368.862	454
369.089	433
369.315	432
369.541	435
369.767	438
369.993	421
370.219	433
370.445	427
370.672	423
370.898	413
371.124	415
371.35	438
371.576	433
371.802	417
372.028	418
372.254	423
372.48	413
372.706	417
372.932	430
373.158	426
373.384	418
373.61	443
373.835	431
374.061	421
374.287	421
374.513	426
374.739	429
374.965	431
375.191	450
375.416	438
375.642	410
375.868	423
376.094	437
376.319	404
376.545	410
376.771	419
376.997	426
377.222	442
377.448	397
377.674	433
377.899	417
378.125	426
378.35	428
378.576	426
378.802	427
379.027	432
379.253	411
379.478	418
379.704	407
379.929	421
380.155	416
380.38	424
380.606	430
380.831	433
381.057	442
381.282	428
381.507	420
381.733	437
381.958	434
382.184	433
382.409	426
382.634	442
382.86	439
383.085	448
383.31	416
383.535	441
383.761	439
383.986	428
384.211	440
384.436	442
384.662	433
384.887	429
385.112	424
385.337	455
385.562	448
385.787	467
386.013	485
386.238	459
386.463	461
386.688	445
386.913	431
387.138	469
387.363	465
387.588	448
387.813	445
388.038	454
388.263	429
388.488	442
388.713	449
388.938	451
389.163	460
389.387	460
389.612	457
389.837	476
390.062	460
390.287	457
390.512	439
390.736	469
390.961	472
391.186	472
391.411	459
391.636	471
391.86	451
392.085	467
392.31	465
392.534	466
392.759	453
392.984	444
393.208	470
393.433	465
393.658	473
393.882	457
394.107	474
394.331	454
394.556	450
394.78	451
395.005	460
395.229	471
395.454	472
395.678	467
395.903	479
396.127	489
396.352	513
396.576	498
396.801	461
397.025	459
397.249	491
397.474	487
397.698	512
397.922	515
398.147	517
398.371	519
398.595	520
398.82	503
399.044	530
399.268	545
399.492	533
399.717	541
399.941	601
400.165	627
400.389	632
400.613	617
400.837	565
401.062	529
401.286	551
401.51	522
401.734	517
401.958	510
402.182	529
402.406	531
402.63	564
402.854	560
403.078	535
403.302	571
403.526	530
403.75	546
403.974	547
404.198	537
404.422	576
404.645	576
404.869	570
405.093	581
405.317	631
405.541	687
405.765	642
405.988	610
406.212	605
406.436	630
406.66	637
406.883	633
407.107	633
407.331	681
407.555	750
407.778	759
408.002	677
408.226	629
408.449	615
408.673	620
408.896	665
409.12	695
409.344	649
409.567	582
409.791	590
410.014	543
410.238	557
410.461	556
410.685	584
410.908	597
411.132	622
411.355	653
411.578	635
411.802	567
412.025	557
412.249	573
412.472	603
412.695	632
412.919	629
413.142	578
413.365	560
413.589	547
413.812	520
414.035	524
414.258	512
414.482	540
414.705	537
414.928	523
415.151	539
415.374	521
415.597	517
415.821	509
416.044	532
416.267	522
416.49	511
416.713	547
416.936	523
417.159	539
417.382	548
417.605	533
417.828	557
418.051	584
418.274	552
418.497	530
418.72	544
418.943	519
419.166	521
419.389	571
419.611	566
419.834	577
420.057	594
420.28	571
420.503	577
420.726	568
420.948	580
421.171	639
421.394	687
421.617	606
421.839	570
422.062	583
422.285	581
422.507	646
422.73	735
422.953	731
423.175	622
423.398	616
423.621	615
423.843	639
424.066	646
424.288	613
424.511	635
424.733	709
424.956	809
425.178	783
425.401	778
425.623	797
425.846	682
426.068	619
426.291	636
426.513	621
426.735	624
426.958	714
427.18	797
427.402	921
427.625	1033
427.847	951
428.069	813
428.292	735
428.514	668
428.736	611
428.958	603
429.181	588
429.403	593
429.625	620
429.847	646
430.069	741
430.292	722
430.514	600
430.736	605
430.958	587
431.18	542
431.402	569
431.624	557
431.846	524
432.068	545
432.29	551
432.512	555
432.734	577
432.956	557
433.178	549
433.4	570
433.622	536
433.844	528
434.066	537
434.287	526
434.509	539
434.731	546
434.953	549
435.175	596
435.397	614
435.618	646
435.84	709
436.062	814
436.284	842
436.505	759
436.727	679
436.949	587
437.17	593
437.392	616
437.614	597
437.835	660
438.057	795
438.278	922
438.5	895
438.721	947
438.943	892
439.165	753
439.386	685
439.608	690
439.829	699
440.05	713
440.272	783
440.493	723
440.715	680
440.936	604
441.158	607
441.379	586
441.6	626
441.822	645
442.043	687
442.264	806
442.486	827
442.707	706
442.928	667
443.149	665
443.371	699
443.592	731
443.813	848
444.034	922
444.255	752
444.476	655
444.698	641
444.919	641
445.14	699
445.361	695
445.582	717
445.803	796
446.024	896
446.245	909
446.466	835
446.687	715
446.908	680
447.129	615
447.35	624
447.571	608
447.792	582
448.013	583
448.234	623
448.455	690
448.675	825
448.896	910
449.117	825
449.338	759
449.559	901
449.779	979
450	826
450.221	687
450.442	634
450.662	626
450.883	610
451.104	620
451.324	613
451.545	589
451.766	573
451.986	562
452.207	526
452.428	513
452.648	545
452.869	531
453.089	566
453.31	569
453.53	577
453.751	530
453.971	545
454.192	599
454.412	551
454.633	527
454.853	543
455.073	529
455.294	567
455.514	653
455.734	636
455.955	567
456.175	539
456.395	486
456.616	515
456.836	509
457.056	499
457.276	507
457.497	513
457.717	498
457.937	497
458.157	530
458.377	528
458.598	551
458.818	621
459.038	730
459.258	738
459.478	633
459.698	578
459.918	535
460.138	549
460.358	524
460.578	570
460.798	557
461.018	563
461.238	547
461.458	530
461.678	535
461.898	549
462.118	538
462.338	554
462.558	527
462.777	524
462.997	562
463.217	555
463.437	578
463.657	569
463.876	563
464.096	577
464.316	571
464.536	584
464.755	597
464.975	590
465.195	647
465.414	790
465.634	695
465.854	619
466.073	570
466.293	571
466.512	549
466.732	536
466.951	539
467.171	554
467.391	545
467.61	560
467.829	556
468.049	549
468.268	551
468.488	551
468.707	558
468.927	541
469.146	528
469.365	522
469.585	521
469.804	537
470.023	553
470.243	555
470.462	551
470.681	579
470.901	578
471.12	528
471.339	555
471.558	548
471.777	568
471.997	532
472.216	537
472.435	620
472.654	590
472.873	553
473.092	574
473.311	553
473.53	558
473.749	555
473.968	632
474.187	758
474.406	769
474.625	660
474.844	585
475.063	554
475.282	543
475.501	542
475.72	560
475.939	583
476.158	553
476.377	578
476.596	562
476.814	587
477.033	572
477.252	596
477.471	579
477.69	589
477.908	576
478.127	599
478.346	590
478.564	611
478.783	621
479.002	617
479.22	622
479.439	633
479.658	675
479.876	671
480.095	670
480.313	724
480.532	670
480.751	687
480.969	709
481.188	783
481.406	810
481.624	751
481.843	669
482.061	683
482.28	678
482.498	666
482.717	667
482.935	659
483.153	654
483.372	649
483.59	669
483.808	654
484.027	645
484.245	656
484.463	647
484.681	679
484.9	649
485.118	650
485.336	671
485.554	663
485.772	668
485.99	658
486.209	678
486.427	699
486.645	699
486.863	741
487.081	709
487.299	693
487.517	698
487.735	709
487.953	717
488.171	722
488.389	712
488.607	714
488.825	718
489.043	737
489.261	716
489.479	718
489.696	710
489.914	744
490.132	759
490.35	758
490.568	759
490.786	782
491.003	805
491.221	831
491.439	835
491.657	818
491.874	795
492.092	835
492.31	838
492.527	878
492.745	844
492.963	872
493.18	875
493.398	867
493.615	867
493.833	874
494.05	838
494.268	881
494.485	866
494.703	867
494.92	863
495.138	861
495.355	863
495.573	886
495.79	873
496.008	885
496.225	842
496.442	873
496.66	857
496.877	864
497.094	875
497.312	889
497.529	897
497.746	895
497.963	892
498.181	933
498.398	914
498.615	898
498.832	950
499.049	957
499.267	931
499.484	944
499.701	973
499.918	993
500.135	995
500.352	1033
500.569	1033
500.786	1064
501.003	1053
501.22	1041
501.437	1024
501.654	1021
501.871	1037
502.088	999
502.305	954
502.522	929
502.739	906
502.956	882
503.172	888
503.389	897
503.606	873
503.823	896
504.04	879
504.256	864
504.473	863
504.69	875
504.907	844
505.123	839
505.34	828
505.557	856
505.773	832
505.99	818
506.207	864
506.423	828
506.64	827
506.856	808
507.073	805
507.289	831
507.506	798
507.722	825
507.939	869
508.155	848
508.372	841
508.588	817
508.805	829
509.021	809
509.238	839
509.454	812
509.67	821
509.887	814
510.103	785
510.319	822
510.536	941
510.752	1636
510.968	1338
511.184	861
511.401	827
511.617	793
511.833	757
512.049	750
512.265	769
512.481	763
512.698	754
512.914	759
513.13	757
513.346	759
513.562	761
513.778	761
513.994	776
514.21	776
514.426	819
514.642	880
514.858	941
515.074	998
515.29	1195
515.506	1877
515.721	1497
515.937	949
516.153	877
516.369	836
516.585	795
516.801	785
517.016	786
517.232	759
517.448	758
517.664	781
517.879	776
518.095	763
518.311	732
518.527	745
518.742	740
518.958	761
519.173	746
519.389	743
519.605	760
519.82	751
520.036	810
520.251	840
520.467	860
520.682	834
520.898	894
521.113	901
521.329	989
521.544	1085
521.76	1473
521.975	2506
522.19	2400
522.406	1260
522.621	935
522.836	819
523.052	793
523.267	749
523.482	704
523.698	727
523.913	719
524.128	727
524.343	688
524.559	678
524.774	665
524.989	673
525.204	678
525.419	688
525.634	657
525.849	654
526.064	640
526.28	640
526.495	607
526.71	636
526.925	623
527.14	623
527.355	616
527.57	619
527.785	614
527.999	591
528.214	611
528.429	589
528.644	602
528.859	615
529.074	592
529.289	652
529.503	779
529.718	739
529.933	662
530.148	621
530.363	616
530.577	611
530.792	601
531.007	571
531.221	581
531.436	557
531.651	578
531.865	563
532.08	574
532.295	577
532.509	567
532.724	553
532.938	571
533.153	566
533.367	543
533.582	565
533.796	569
534.011	576
534.225	561
534.44	557
534.654	547
534.868	553
535.083	568
535.297	535
535.511	572
535.726	590
535.94	593
536.154	568
536.369	559
536.583	529
536.797	539
537.011	549
537.225	557
537.44	545
537.654	567
537.868	549
538.082	540
538.296	561
538.51	544
538.724	542
538.938	564
539.153	567
539.367	573
539.581	555
539.795	551
540.009	536
540.222	535
540.436	525
540.65	569
540.864	567
541.078	578
541.292	570
541.506	567
541.72	564
541.934	545
542.147	569
542.361	542
542.575	496
542.789	553
543.002	508
543.216	517
543.43	532
543.644	560
543.857	517
544.071	525
544.285	539
544.498	523
544.712	567
544.925	553
545.139	547
545.352	511
545.566	537
545.779	537
545.993	544
546.206	548
546.42	517
546.633	518
546.847	530
547.06	523
547.274	526
547.487	527
547.7	541
547.914	512
548.127	514
548.34	516
548.554	501
548.767	503
548.98	484
549.193	508
549.407	499
549.62	508
549.833	497
550.046	535
550.259	499
550.473	496
550.686	524
550.899	498
551.112	490
551.325	485
551.538	489
551.751	504
551.964	511
552.177	494
552.39	493
552.603	515
552.816	513
553.029	483
553.242	530
553.455	526
553.667	516
553.88	557
554.093	529
554.306	505
554.519	511
554.732	495
554.944	495
555.157	509
555.37	482
555.583	487
555.795	487
556.008	467
556.221	470
556.433	462
556.646	464
556.859	482
557.071	471
557.284	477
557.496	483
557.709	464
557.921	476
558.134	462
558.346	462
558.559	459
558.771	461
558.984	453
559.196	467
559.409	435
559.621	450
559.833	458
560.046	454
560.258	451
560.47	448
560.683	467
560.895	426
561.107	432
561.32	458
561.532	448
561.744	454
561.956	458
562.168	458
562.381	442
562.593	445
562.805	453
563.017	450
563.229	472
563.441	456
563.653	440
563.865	456
564.077	459
564.289	461
564.501	445
564.713	464
564.925	464
565.137	484
565.349	488
565.561	451
565.773	459
565.985	485
566.197	476
566.408	465
566.62	487
566.832	484
567.044	517
567.255	527
567.467	515
567.679	506
567.891	521
568.102	514
568.314	495
568.526	491
568.737	481
568.949	463
569.161	463
569.372	448
569.584	443
569.795	456
570.007	434
570.218	527
570.43	535
570.641	428
570.853	419
571.064	431
571.276	429
571.487	442
571.698	420
571.91	391
572.121	405
572.333	396
572.544	393
572.755	414
572.966	397
573.178	408
573.389	413
573.6	390
573.811	401
574.023	374
574.234	373
574.445	375
574.656	384
574.867	385
575.078	393
575.289	397
575.501	383
575.712	388
575.923	363
576.134	385
576.345	397
576.556	386
576.767	389
576.978	384
577.188	369
577.399	369
577.61	352
577.821	384
578.032	363
578.243	409
578.454	744
578.665	552
578.875	408
579.086	378
579.297	375
579.508	367
579.718	352
579.929	365
580.14	352
580.35	350
580.561	375
580.772	349
580.982	360
581.193	347
581.403	362
581.614	348
581.825	333
582.035	325
582.246	357
582.456	367
582.667	353
582.877	346
583.087	337
583.298	345
583.508	337
583.719	347
583.929	334
584.139	332
584.35	336
584.56	352
584.77	342
584.981	341
585.191	344
585.401	342
585.611	327
585.821	347
586.032	353
586.242	354
586.452	344
586.662	333
586.872	340
587.082	362
587.292	338
587.502	339
587.713	337
587.923	343
588.133	334
588.343	318
588.553	327
588.762	341
588.972	334
589.182	338
589.392	321
589.602	325
589.812	327
590.022	350
590.232	342
590.441	333
590.651	326
590.861	327
591.071	335
591.281	315
591.49	328
591.7	334
591.91	346
592.119	323
592.329	325
592.539	340
592.748	326
592.958	345
593.167	335
593.377	326
593.587	352
593.796	358
594.006	333
594.215	350
594.424	330
594.634	333
594.843	339
595.053	334
595.262	330
595.472	322
595.681	323
595.89	314
596.1	319
596.309	320
596.518	313
596.727	314
596.937	312
597.146	300
597.355	306
597.564	311
597.774	305
597.983	294
598.192	293
598.401	305
598.61	284
598.819	336
599.028	306
599.237	306
599.446	311
599.655	299
599.864	293
600.073	288
600.282	293
600.491	289
600.7	299
600.909	290
601.118	302
601.327	303
601.536	281
601.745	293
601.953	289
602.162	299
602.371	288
602.58	305
602.789	285
602.997	271
603.206	284
603.415	284
603.623	288
603.832	294
604.041	296
604.249	288
604.458	287
604.666	278
604.875	273
605.084	282
605.292	270
605.501	273
605.709	287
605.918	288
606.126	309
606.334	286
606.543	301
606.751	272
606.96	295
607.168	277
607.376	275
607.585	281
607.793	283
608.001	291
608.21	274
608.418	277
608.626	277
608.834	287
609.043	287
609.251	278
609.459	275
609.667	294
609.875	291
610.083	298
610.291	298
610.499	263
610.707	285
610.916	273
611.124	273
611.332	293
611.54	291
611.748	285
611.955	269
612.163	275
612.371	272
612.579	263
612.787	265
612.995	272
613.203	266
613.411	273
613.618	286
613.826	257
614.034	266
614.242	288
614.449	271
614.657	271
614.865	265
615.072	277
615.28	291
615.488	265
615.695	272
615.903	263
616.111	270
616.318	272
616.526	281
616.733	268
616.941	272
617.148	274
617.356	262
617.563	273
617.771	267
617.978	270
618.185	278
618.393	264
618.6	251
618.807	247
619.015	266
619.222	275
619.429	253
619.637	257
619.844	263
620.051	251
620.258	259
620.466	253
620.673	247
620.88	250
621.087	249
621.294	238
621.501	263
621.708	260
621.915	264
622.122	262
622.329	254
622.536	261
622.743	252
622.95	254
623.157	248
623.364	245
623.571	246
623.778	254
623.985	229
624.192	238
624.399	237
624.606	247
624.812	240
625.019	249
625.226	229
625.433	227
625.639	233
625.846	224
626.053	238
626.259	238
626.466	238
626.673	235
626.879	240
627.086	232
627.293	226
627.499	223
627.706	220
627.912	235
628.119	229
628.325	229
628.532	246
628.738	240
628.945	225
629.151	255
629.357	230
629.564	229
629.77	225
629.976	222
630.183	233
630.389	239
630.595	219
630.802	219
631.008	216
631.214	226
631.42	217
631.627	207
631.833	204
632.039	215
632.245	227
632.451	226
632.657	232
632.863	227
633.069	213
633.275	229
633.481	211
633.688	204
633.893	215
634.099	213
634.305	225
634.511	201
634.717	202
634.923	215
635.129	204
635.335	215
635.541	202
635.747	200
635.952	203
636.158	207
636.364	204
636.57	203
636.775	221
636.981	206
637.187	195
637.392	209
637.598	188
637.804	208
638.009	212
638.215	211
638.421	208
638.626	210
638.832	205
639.037	193
639.243	199
639.448	201
639.654	206
639.859	200
640.065	198
640.27	195
640.475	205
640.681	197
640.886	187
641.091	199
641.297	211
641.502	201
641.707	181
641.913	193
642.118	196
642.323	200
642.528	199
642.733	186
642.939	194
643.144	194
643.349	210
643.554	182
643.759	202
643.964	197
644.169	187
644.374	195
644.579	187
644.784	186
644.989	201
645.194	199
645.399	187
645.604	191
645.809	174
646.014	188
646.219	200
646.423	187
646.628	186
646.833	192
647.038	177
647.243	177
647.447	192
647.652	179
647.857	188
648.062	190
648.266	187
648.471	211
648.676	196
648.88	188
649.085	191
649.289	183
649.494	203
649.698	223
649.903	221
650.107	183
650.312	194
650.516	193
650.721	173
650.925	193
651.13	176
651.334	156
651.539	177
651.743	176
651.947	160
652.152	162
652.356	162
652.56	170
652.764	171
652.969	157
653.173	151
653.377	161
653.581	145
653.785	143
653.99	158
654.194	146
654.398	154
654.602	150
654.806	155
655.01	147
655.214	158
655.418	129
655.622	161
655.826	151
656.03	150
656.234	139
656.438	135
656.642	141
656.846	137
657.049	111
657.253	128
657.457	125
657.661	119
657.865	118
658.068	127
658.272	127
658.476	107
658.68	119
658.883	103
659.087	111
659.291	105
659.494	105
659.698	105
659.901	100
660.105	117
660.309	99
660.512	109
660.716	94
660.919	90
661.123	98
661.326	97
661.53	84
661.733	98
661.936	98
662.14	93
662.343	85
662.546	90
662.75	85
662.953	86
663.156	89
663.36	91
663.563	86
663.766	89
663.969	85
664.173	82
664.376	111
664.579	94
664.782	93
664.985	87
665.188	103
665.391	80
665.594	64
665.797	82
666	88
666.203	79
666.406	84
666.609	94
666.812	88
667.015	90
667.218	94
667.421	88
667.624	86
667.827	95
668.03	83
668.232	97
668.435	89
668.638	84
668.841	87
669.043	90
669.246	81
669.449	87
669.651	91
669.854	88
670.057	77
670.259	78
670.462	107
670.665	87
670.867	82
671.07	89
671.272	93
671.475	88
671.677	88
671.88	73
672.082	102
672.284	77
672.487	90
672.689	83
672.892	92
