Data from 1972.PennyLincolnUp.Lamp.En5.5.200Scan.071719.P1._HRD10591_15-28-15-843.txt Node
Date: Thu Jul 18 15:28:15 EDT 2019
User: cochatt
Spectrometer: HR+D1059
Trigger mode: 1
Integration Time (sec): 1.000000E-1
Scans to average: 1
Electric dark correction enabled: true
Nonlinearity correction enabled: false
Boxcar width: 0
XAxis mode: Wavelengths
Number of Pixels in Spectrum: 2048
>>>>>Begin Spectral Data<<<<<
223.165	-16
223.4	-16
223.635	-16
223.869	-16
224.104	-24
224.338	-2
224.573	-10
224.808	-23
225.042	-19
225.277	-2
225.511	4
225.746	4
225.98	19
226.215	7
226.449	18
226.683	15
226.918	19
227.152	26
227.387	44
227.621	32
227.856	41
228.09	35
228.324	53
228.559	58
228.793	74
229.027	96
229.262	112
229.496	128
229.73	132
229.964	165
230.199	145
230.433	120
230.667	97
230.901	113
231.136	105
231.37	116
231.604	109
231.838	104
232.072	103
232.306	106
232.541	121
232.775	123
233.009	126
233.243	103
233.477	117
233.711	116
233.945	124
234.179	125
234.413	124
234.647	112
234.881	93
235.115	120
235.349	109
235.583	115
235.817	120
236.051	116
236.285	123
236.519	118
236.753	126
236.987	135
237.221	181
237.455	264
237.689	197
237.922	141
238.156	138
238.39	121
238.624	134
238.858	132
239.091	122
239.325	124
239.559	119
239.793	133
240.027	128
240.26	149
240.494	156
240.728	154
240.961	153
241.195	148
241.429	131
241.662	136
241.896	132
242.13	132
242.363	128
242.597	141
242.83	146
243.064	150
243.298	138
243.531	150
243.765	121
243.998	144
244.232	152
244.465	142
244.699	150
244.932	149
245.166	137
245.399	146
245.633	142
245.866	146
246.099	155
246.333	149
246.566	150
246.8	171
247.033	159
247.266	158
247.5	165
247.733	164
247.966	170
248.2	159
248.433	174
248.666	182
248.899	195
249.133	208
249.366	215
249.599	204
249.832	187
250.066	188
250.299	183
250.532	185
250.765	211
250.998	226
251.231	235
251.465	229
251.698	209
251.931	221
252.164	214
252.397	214
252.63	193
252.863	224
253.096	210
253.329	241
253.562	246
253.795	251
254.028	235
254.261	235
254.494	245
254.727	287
254.96	285
255.193	296
255.426	258
255.659	256
255.892	258
256.124	258
256.357	254
256.59	232
256.823	225
257.056	225
257.289	203
257.521	214
257.754	207
257.987	214
258.22	212
258.452	212
258.685	209
258.918	225
259.151	209
259.383	233
259.616	229
259.849	213
260.081	249
260.314	265
260.547	260
260.779	247
261.012	257
261.244	238
261.477	239
261.71	226
261.942	247
262.175	243
262.407	238
262.64	231
262.872	234
263.105	232
263.337	206
263.57	209
263.802	233
264.035	217
264.267	227
264.499	205
264.732	222
264.964	219
265.197	218
265.429	220
265.661	209
265.894	216
266.126	221
266.358	221
266.591	212
266.823	233
267.055	231
267.287	244
267.52	230
267.752	233
267.984	220
268.216	235
268.448	244
268.681	235
268.913	254
269.145	278
269.377	274
269.609	288
269.841	272
270.073	278
270.306	295
270.538	331
270.77	336
271.002	312
271.234	318
271.466	330
271.698	339
271.93	332
272.162	329
272.394	317
272.626	319
272.858	296
273.09	308
273.322	286
273.553	294
273.785	294
274.017	278
274.249	274
274.481	274
274.713	255
274.945	286
275.176	274
275.408	285
275.64	263
275.872	256
276.104	274
276.335	279
276.567	288
276.799	311
277.031	319
277.262	328
277.494	317
277.726	295
277.957	292
278.189	300
278.421	266
278.652	278
278.884	292
279.115	263
279.347	252
279.579	274
279.81	265
280.042	265
280.273	269
280.505	259
280.736	268
280.968	263
281.199	253
281.431	275
281.662	248
281.894	284
282.125	274
282.356	310
282.588	318
282.819	325
283.051	264
283.282	280
283.513	272
283.745	258
283.976	284
284.207	282
284.439	269
284.67	275
284.901	275
285.132	283
285.364	249
285.595	260
285.826	281
286.057	276
286.288	275
286.52	273
286.751	283
286.982	284
287.213	270
287.444	304
287.675	270
287.906	308
288.138	296
288.369	314
288.6	313
288.831	309
289.062	302
289.293	297
289.524	267
289.755	286
289.986	290
290.217	297
290.448	261
290.679	270
290.91	279
291.141	271
291.371	288
291.602	287
291.833	278
292.064	288
292.295	290
292.526	277
292.757	285
292.987	283
293.218	278
293.449	294
293.68	289
293.91	284
294.141	276
294.372	285
294.603	276
294.833	286
295.064	289
295.295	286
295.525	283
295.756	284
295.987	307
296.217	340
296.448	348
296.679	306
296.909	295
297.14	290
297.37	289
297.601	285
297.831	294
298.062	299
298.292	294
298.523	296
298.753	280
298.984	294
299.214	314
299.445	316
299.675	313
299.905	289
300.136	295
300.366	304
300.597	297
300.827	312
301.057	317
301.288	338
301.518	321
301.748	321
301.979	332
302.209	316
302.439	341
302.669	318
302.9	312
303.13	313
303.36	315
303.59	317
303.82	329
304.051	316
304.281	335
304.511	314
304.741	323
304.971	300
305.201	321
305.431	334
305.661	329
305.891	323
306.121	309
306.352	329
306.582	340
306.812	328
307.042	335
307.272	307
307.502	320
307.731	325
307.961	347
308.191	327
308.421	324
308.651	341
308.881	332
309.111	340
309.341	357
309.571	370
309.8	380
310.03	380
310.26	384
310.49	380
310.72	391
310.949	400
311.179	419
311.409	392
311.639	386
311.868	384
312.098	386
312.328	384
312.557	386
312.787	429
313.017	422
313.246	409
313.476	381
313.706	381
313.935	390
314.165	395
314.394	405
314.624	410
314.853	390
315.083	374
315.312	383
315.542	387
315.771	379
316.001	354
316.23	374
316.46	378
316.689	381
316.919	395
317.148	395
317.377	394
317.607	386
317.836	392
318.065	396
318.295	383
318.524	394
318.753	378
318.983	373
319.212	368
319.441	390
319.67	388
319.9	402
320.129	384
320.358	383
320.587	373
320.816	388
321.046	426
321.275	395
321.504	400
321.733	390
321.962	425
322.191	442
322.42	462
322.649	503
322.878	486
323.108	501
323.337	540
323.566	550
323.795	583
324.024	656
324.253	821
324.482	1187
324.71	1842
324.939	2770
325.168	2400
325.397	1196
325.626	798
325.855	613
326.084	569
326.313	544
326.542	571
326.77	628
326.999	736
327.228	1052
327.457	1657
327.686	2020
327.914	1369
328.143	863
328.372	732
328.6	712
328.829	642
329.058	652
329.287	648
329.515	622
329.744	602
329.972	564
330.201	592
330.43	638
330.658	655
330.887	693
331.115	658
331.344	553
331.572	512
331.801	519
332.03	536
332.258	492
332.486	454
332.715	462
332.943	458
333.172	450
333.4	460
333.629	470
333.857	479
334.085	477
334.314	527
334.542	564
334.771	580
334.999	510
335.227	471
335.455	434
335.684	438
335.912	456
336.14	444
336.369	442
336.597	448
336.825	435
337.053	434
337.281	448
337.51	416
337.738	452
337.966	424
338.194	420
338.422	435
338.65	433
338.878	441
339.106	410
339.334	413
339.562	437
339.79	413
340.018	408
340.246	424
340.474	438
340.702	443
340.93	402
341.158	433
341.386	416
341.614	442
341.842	445
342.07	411
342.298	402
342.526	408
342.754	403
342.981	385
343.209	386
343.437	398
343.665	408
343.893	414
344.12	412
344.348	429
344.576	416
344.804	448
345.031	428
345.259	456
345.487	437
345.714	428
345.942	412
346.17	409
346.397	395
346.625	409
346.853	430
347.08	421
347.308	414
347.535	429
347.763	437
347.99	428
348.218	427
348.445	425
348.673	432
348.9	386
349.128	419
349.355	380
349.583	398
349.81	394
350.037	391
350.265	360
350.492	399
350.72	408
350.947	408
351.174	421
351.402	419
351.629	444
351.856	418
352.083	437
352.311	422
352.538	446
352.765	416
352.992	410
353.22	413
353.447	405
353.674	410
353.901	390
354.128	393
354.355	387
354.583	372
354.81	391
355.037	371
355.264	383
355.491	370
355.718	373
355.945	368
356.172	366
356.399	357
356.626	365
356.853	379
357.08	349
357.307	367
357.534	386
357.761	398
357.988	374
358.215	389
358.441	381
358.668	376
358.895	380
359.122	386
359.349	393
359.576	405
359.802	430
360.029	465
360.256	484
360.483	466
360.709	424
360.936	401
361.163	411
361.39	408
361.616	427
361.843	382
362.07	408
362.296	415
362.523	409
362.749	380
362.976	399
363.203	377
363.429	382
363.656	396
363.882	370
364.109	373
364.335	397
364.562	388
364.788	372
365.015	378
365.241	384
365.468	392
365.694	404
365.92	406
366.147	402
366.373	371
366.599	357
366.826	378
367.052	371
367.278	369
367.505	376
367.731	375
367.957	377
368.184	384
368.41	384
368.636	397
368.862	393
369.089	395
369.315	373
369.541	364
369.767	380
369.993	394
370.219	396
370.445	373
370.672	370
370.898	377
371.124	364
371.35	380
371.576	363
371.802	354
372.028	372
372.254	383
372.48	358
372.706	358
372.932	357
373.158	342
373.384	361
373.61	373
373.835	380
374.061	373
374.287	361
374.513	376
374.739	384
374.965	382
375.191	359
375.416	365
375.642	372
375.868	367
376.094	337
376.319	371
376.545	361
376.771	364
376.997	349
377.222	366
377.448	379
377.674	346
377.899	354
378.125	368
378.35	374
378.576	345
378.802	361
379.027	381
379.253	349
379.478	361
379.704	359
379.929	367
380.155	354
380.38	378
380.606	372
380.831	368
381.057	383
381.282	365
381.507	368
381.733	361
381.958	384
382.184	378
382.409	368
382.634	370
382.86	368
383.085	361
383.31	376
383.535	370
383.761	377
383.986	396
384.211	381
384.436	381
384.662	375
384.887	385
385.112	390
385.337	387
385.562	401
385.787	378
386.013	390
386.238	403
386.463	394
386.688	384
386.913	377
387.138	395
387.363	388
387.588	384
387.813	389
388.038	377
388.263	384
388.488	378
388.713	391
388.938	376
389.163	390
389.387	422
389.612	375
389.837	383
390.062	392
390.287	372
390.512	378
390.736	394
390.961	390
391.186	383
391.411	386
391.636	378
391.86	399
392.085	396
392.31	386
392.534	398
392.759	377
392.984	395
393.208	397
393.433	390
393.658	399
393.882	395
394.107	380
394.331	380
394.556	401
394.78	383
395.005	394
395.229	386
395.454	398
395.678	404
395.903	425
396.127	438
396.352	437
396.576	434
396.801	425
397.025	407
397.249	398
397.474	417
397.698	402
397.922	429
398.147	436
398.371	431
398.595	440
398.82	422
399.044	428
399.268	441
399.492	454
399.717	469
399.941	497
400.165	546
400.389	541
400.613	516
400.837	474
401.062	486
401.286	449
401.51	443
401.734	432
401.958	435
402.182	444
402.406	468
402.63	459
402.854	459
403.078	466
403.302	468
403.526	462
403.75	476
403.974	459
404.198	448
404.422	464
404.645	472
404.869	479
405.093	497
405.317	573
405.541	609
405.765	556
405.988	510
406.212	514
406.436	513
406.66	531
406.883	520
407.107	540
407.331	576
407.555	662
407.778	638
408.002	574
408.226	570
408.449	517
408.673	542
408.896	534
409.12	589
409.344	570
409.567	488
409.791	487
410.014	476
410.238	472
410.461	451
410.685	496
410.908	488
411.132	520
411.355	585
411.578	534
411.802	490
412.025	459
412.249	465
412.472	486
412.695	564
412.919	517
413.142	484
413.365	484
413.589	463
413.812	442
414.035	448
414.258	443
414.482	428
414.705	426
414.928	438
415.151	432
415.374	429
415.597	418
415.821	424
416.044	430
416.267	440
416.49	408
416.713	411
416.936	446
417.159	449
417.382	429
417.605	438
417.828	441
418.051	456
418.274	464
418.497	436
418.72	416
418.943	434
419.166	458
419.389	454
419.611	476
419.834	469
420.057	447
420.28	456
420.503	454
420.726	471
420.948	489
421.171	537
421.394	563
421.617	506
421.839	476
422.062	448
422.285	481
422.507	522
422.73	602
422.953	597
423.175	517
423.398	501
423.621	488
423.843	518
424.066	513
424.288	492
424.511	516
424.733	579
424.956	672
425.178	658
425.401	660
425.623	651
425.846	555
426.068	518
426.291	532
426.513	532
426.735	538
426.958	574
427.18	653
427.402	774
427.625	887
427.847	815
428.069	674
428.292	574
428.514	535
428.736	525
428.958	500
429.181	480
429.403	467
429.625	468
429.847	517
430.069	584
430.292	601
430.514	500
430.736	483
430.958	462
431.18	458
431.402	448
431.624	426
431.846	466
432.068	444
432.29	433
432.512	459
432.734	444
432.956	451
433.178	472
433.4	469
433.622	438
433.844	439
434.066	443
434.287	432
434.509	449
434.731	448
434.953	464
435.175	469
435.397	503
435.618	537
435.84	569
436.062	677
436.284	739
436.505	610
436.727	572
436.949	504
437.17	501
437.392	487
437.614	486
437.835	537
438.057	638
438.278	751
438.5	736
438.721	829
438.943	764
439.165	595
439.386	554
439.608	539
439.829	537
440.05	594
440.272	640
440.493	600
440.715	519
440.936	490
441.158	506
441.379	502
441.6	512
441.822	517
442.043	558
442.264	654
442.486	707
442.707	588
442.928	554
443.149	550
443.371	577
443.592	600
443.813	714
444.034	770
444.255	626
444.476	536
444.698	537
444.919	519
445.14	631
445.361	608
445.582	586
445.803	674
446.024	761
446.245	790
446.466	714
446.687	605
446.908	567
447.129	491
447.35	481
447.571	476
447.792	470
448.013	466
448.234	493
448.455	589
448.675	665
448.896	790
449.117	675
449.338	625
449.559	746
449.779	857
450	668
450.221	544
450.442	510
450.662	496
450.883	517
451.104	500
451.324	474
451.545	474
451.766	461
451.986	439
452.207	437
452.428	442
452.648	417
452.869	425
453.089	441
453.31	467
453.53	425
453.751	439
453.971	458
454.192	447
454.412	456
454.633	432
454.853	455
455.073	419
455.294	455
455.514	533
455.734	521
455.955	436
456.175	449
456.395	404
456.616	394
456.836	402
457.056	382
457.276	385
457.497	398
457.717	404
457.937	399
458.157	437
458.377	418
458.598	433
458.818	496
459.038	611
459.258	647
459.478	492
459.698	446
459.918	461
460.138	438
460.358	444
460.578	416
460.798	428
461.018	445
461.238	431
461.458	440
461.678	438
461.898	420
462.118	439
462.338	448
462.558	440
462.777	454
462.997	459
463.217	438
463.437	454
463.657	457
463.876	443
464.096	471
464.316	459
464.536	461
464.755	485
464.975	489
465.195	530
465.414	650
465.634	562
465.854	497
466.073	450
466.293	446
466.512	423
466.732	428
466.951	424
467.171	443
467.391	432
467.61	457
467.829	482
468.049	470
468.268	443
468.488	457
468.707	434
468.927	422
469.146	404
469.365	412
469.585	409
469.804	429
470.023	460
470.243	447
470.462	436
470.681	460
470.901	472
471.12	448
471.339	445
471.558	438
471.777	451
471.997	435
472.216	465
472.435	509
472.654	470
472.873	456
473.092	435
473.311	440
473.53	452
473.749	449
473.968	494
474.187	621
474.406	649
474.625	510
474.844	493
475.063	445
475.282	457
475.501	432
475.72	449
475.939	476
476.158	459
476.377	437
476.596	442
476.814	469
477.033	455
477.252	480
477.471	478
477.69	471
477.908	463
478.127	486
478.346	464
478.564	480
478.783	463
479.002	475
479.22	474
479.439	510
479.658	548
479.876	551
480.095	524
480.313	553
480.532	563
480.751	543
480.969	570
481.188	650
481.406	670
481.624	595
481.843	552
482.061	533
482.28	532
482.498	533
482.717	513
482.935	521
483.153	510
483.372	517
483.59	480
483.808	520
484.027	536
484.245	516
484.463	526
484.681	526
484.9	534
485.118	552
485.336	544
485.554	545
485.772	535
485.99	539
486.209	542
486.427	536
486.645	561
486.863	583
487.081	573
487.299	560
487.517	534
487.735	562
487.953	557
488.171	558
488.389	576
488.607	565
488.825	555
489.043	541
489.261	565
489.479	573
489.696	569
489.914	558
490.132	571
490.35	554
490.568	557
490.786	582
491.003	598
491.221	613
491.439	625
491.657	654
491.874	616
492.092	631
492.31	634
492.527	628
492.745	612
492.963	655
493.18	640
493.398	651
493.615	654
493.833	666
494.05	670
494.268	651
494.485	644
494.703	649
494.92	658
495.138	643
495.355	682
495.573	653
495.79	657
496.008	665
496.225	667
496.442	661
496.66	644
496.877	647
497.094	664
497.312	692
497.529	670
497.746	683
497.963	684
498.181	724
498.398	709
498.615	704
498.832	722
499.049	739
499.267	740
499.484	750
499.701	741
499.918	765
500.135	777
500.352	805
500.569	802
500.786	823
501.003	827
501.22	836
501.437	788
501.654	795
501.871	804
502.088	791
502.305	766
502.522	726
502.739	715
502.956	678
503.172	694
503.389	704
503.606	689
503.823	684
504.04	664
504.256	663
504.473	682
504.69	669
504.907	653
505.123	666
505.34	652
505.557	648
505.773	628
505.99	651
506.207	657
506.423	636
506.64	662
506.856	626
507.073	636
507.289	639
507.506	627
507.722	634
507.939	698
508.155	647
508.372	632
508.588	620
508.805	634
509.021	614
509.238	633
509.454	641
509.67	609
509.887	609
510.103	606
510.319	644
510.536	769
510.752	1334
510.968	1072
511.184	670
511.401	631
511.617	624
511.833	624
512.049	608
512.265	608
512.481	594
512.698	566
512.914	592
513.13	604
513.346	584
513.562	606
513.778	601
513.994	601
514.21	624
514.426	660
514.642	689
514.858	744
515.074	810
515.29	993
515.506	1518
515.721	1204
515.937	772
516.153	708
516.369	663
516.585	657
516.801	617
517.016	602
517.232	606
517.448	593
517.664	596
517.879	588
518.095	600
518.311	587
518.527	578
518.742	585
518.958	583
519.173	585
519.389	588
519.605	604
519.82	593
520.036	601
520.251	645
520.467	679
520.682	669
520.898	682
521.113	736
521.329	802
521.544	892
521.76	1186
521.975	2038
522.19	1962
522.406	1044
522.621	743
522.836	664
523.052	611
523.267	605
523.482	584
523.698	560
523.913	569
524.128	533
524.343	553
524.559	523
524.774	520
524.989	521
525.204	538
525.419	536
525.634	508
525.849	511
526.064	477
526.28	511
526.495	512
526.71	472
526.925	490
527.14	488
527.355	490
527.57	494
527.785	486
527.999	470
528.214	465
528.429	482
528.644	490
528.859	471
529.074	486
529.289	502
529.503	603
529.718	597
529.933	543
530.148	510
530.363	486
530.577	465
530.792	470
531.007	474
531.221	467
531.436	472
531.651	465
531.865	465
532.08	441
532.295	450
532.509	454
532.724	441
532.938	450
533.153	466
533.367	444
533.582	439
533.796	439
534.011	448
534.225	443
534.44	446
534.654	440
534.868	411
535.083	432
535.297	440
535.511	441
535.726	455
535.94	437
536.154	462
536.369	452
536.583	428
536.797	436
537.011	437
537.225	420
537.44	427
537.654	425
537.868	439
538.082	444
538.296	450
538.51	443
538.724	440
538.938	433
539.153	427
539.367	434
539.581	459
539.795	452
540.009	436
540.222	426
540.436	437
540.65	443
540.864	430
541.078	428
541.292	440
541.506	426
541.72	443
541.934	426
542.147	419
542.361	425
542.575	432
542.789	422
543.002	413
543.216	425
543.43	418
543.644	458
543.857	431
544.071	454
544.285	438
544.498	436
544.712	433
544.925	424
545.139	445
545.352	416
545.566	430
545.779	421
545.993	429
546.206	435
546.42	414
546.633	418
546.847	428
547.06	399
547.274	411
547.487	402
547.7	416
547.914	417
548.127	398
548.34	409
548.554	384
548.767	405
548.98	396
549.193	395
549.407	414
549.62	380
549.833	399
550.046	386
550.259	381
550.473	390
550.686	392
550.899	409
551.112	400
551.325	392
551.538	384
551.751	394
551.964	398
552.177	382
552.39	393
552.603	388
552.816	394
553.029	393
553.242	421
553.455	404
553.667	427
553.88	423
554.093	434
554.306	416
554.519	385
554.732	413
554.944	406
555.157	398
555.37	388
555.583	376
555.795	405
556.008	359
556.221	387
556.433	367
556.646	386
556.859	366
557.071	382
557.284	366
557.496	378
557.709	380
557.921	378
558.134	370
558.346	363
558.559	365
558.771	385
558.984	370
559.196	357
559.409	350
559.621	349
559.833	342
560.046	350
560.258	384
560.47	349
560.683	356
560.895	351
561.107	356
561.32	354
561.532	343
561.744	363
561.956	361
562.168	370
562.381	363
562.593	352
562.805	353
563.017	375
563.229	366
563.441	367
563.653	364
563.865	386
564.077	364
564.289	350
564.501	356
564.713	374
564.925	385
565.137	394
565.349	378
565.561	369
565.773	381
565.985	382
566.197	377
566.408	388
566.62	397
566.832	398
567.044	414
567.255	403
567.467	397
567.679	405
567.891	398
568.102	412
568.314	394
568.526	397
568.737	398
568.949	371
569.161	362
569.372	370
569.584	383
569.795	364
570.007	352
570.218	410
570.43	403
570.641	360
570.853	328
571.064	337
571.276	338
571.487	349
571.698	348
571.91	340
572.121	319
572.333	325
572.544	315
572.755	314
572.966	323
573.178	305
573.389	331
573.6	320
573.811	327
574.023	320
574.234	317
574.445	313
574.656	300
574.867	316
575.078	301
575.289	306
575.501	308
575.712	304
575.923	299
576.134	297
576.345	297
576.556	304
576.767	295
576.978	309
577.188	307
577.399	280
577.61	292
577.821	294
578.032	305
578.243	363
578.454	636
578.665	438
578.875	332
579.086	296
579.297	313
579.508	294
579.718	302
579.929	289
580.14	279
580.35	276
580.561	281
580.772	301
580.982	309
581.193	264
581.403	301
581.614	292
581.825	297
582.035	288
582.246	292
582.456	289
582.667	275
582.877	279
583.087	285
583.298	274
583.508	288
583.719	287
583.929	284
584.139	285
584.35	277
584.56	294
584.77	298
584.981	295
585.191	269
585.401	263
585.611	273
585.821	269
586.032	292
586.242	274
586.452	250
586.662	280
586.872	284
587.082	289
587.292	275
587.502	265
587.713	274
587.923	280
588.133	282
588.343	272
588.553	275
588.762	274
588.972	287
589.182	283
589.392	277
589.602	262
589.812	267
590.022	278
590.232	276
590.441	276
590.651	284
590.861	264
591.071	258
591.281	291
591.49	282
591.7	265
591.91	263
592.119	275
592.329	285
592.539	280
592.748	289
592.958	271
593.167	259
593.377	272
593.587	281
593.796	284
594.006	274
594.215	282
594.424	285
594.634	270
594.843	277
595.053	275
595.262	294
595.472	240
595.681	254
595.89	268
596.1	262
596.309	266
596.518	270
596.727	252
596.937	264
597.146	254
597.355	256
597.564	244
597.774	236
597.983	253
598.192	252
598.401	258
598.61	242
598.819	266
599.028	260
599.237	250
599.446	260
599.655	245
599.864	243
600.073	256
600.282	251
600.491	250
600.7	234
600.909	237
601.118	257
601.327	258
601.536	233
601.745	256
601.953	234
602.162	226
602.371	248
602.58	243
602.789	237
602.997	249
603.206	235
603.415	236
603.623	243
603.832	230
604.041	229
604.249	232
604.458	234
604.666	237
604.875	217
605.084	233
605.292	244
605.501	233
605.709	214
605.918	224
606.126	237
606.334	236
606.543	233
606.751	241
606.96	250
607.168	229
607.376	214
607.585	226
607.793	227
608.001	237
608.21	224
608.418	211
608.626	234
608.834	226
609.043	227
609.251	244
609.459	229
609.667	231
609.875	217
610.083	224
610.291	224
610.499	212
610.707	227
610.916	220
611.124	230
611.332	226
611.54	248
611.748	239
611.955	217
612.163	214
612.371	223
612.579	220
612.787	229
612.995	221
613.203	222
613.411	244
613.618	220
613.826	218
614.034	226
614.242	235
614.449	215
614.657	229
614.865	208
615.072	224
615.28	229
615.488	225
615.695	226
615.903	231
616.111	220
616.318	228
616.526	211
616.733	236
616.941	220
617.148	220
617.356	227
617.563	220
617.771	220
617.978	213
618.185	222
618.393	197
618.6	216
618.807	199
619.015	211
619.222	229
619.429	209
619.637	211
619.844	219
620.051	206
620.258	216
620.466	196
620.673	195
620.88	190
621.087	197
621.294	205
621.501	194
621.708	206
621.915	202
622.122	201
622.329	211
622.536	201
622.743	206
622.95	214
623.157	201
623.364	216
623.571	204
623.778	201
623.985	208
624.192	187
624.399	212
624.606	201
624.812	196
625.019	202
625.226	210
625.433	207
625.639	203
625.846	204
626.053	184
626.259	204
626.466	203
626.673	196
626.879	198
627.086	201
627.293	196
627.499	203
627.706	189
627.912	186
628.119	197
628.325	196
628.532	189
628.738	188
628.945	191
629.151	180
629.357	190
629.564	194
629.77	203
629.976	186
630.183	172
630.389	170
630.595	181
630.802	188
631.008	196
631.214	188
631.42	175
631.627	179
631.833	189
632.039	176
632.245	186
632.451	187
632.657	192
632.863	176
633.069	182
633.275	187
633.481	170
633.688	176
633.893	176
634.099	192
634.305	178
634.511	178
634.717	178
634.923	169
635.129	154
635.335	165
635.541	165
635.747	184
635.952	166
636.158	183
636.364	164
636.57	184
636.775	174
636.981	159
637.187	188
637.392	171
637.598	176
637.804	180
638.009	163
638.215	184
638.421	166
638.626	174
638.832	156
639.037	169
639.243	163
639.448	162
639.654	172
639.859	155
640.065	166
640.27	175
640.475	173
640.681	178
640.886	156
641.091	158
641.297	171
641.502	183
641.707	166
641.913	169
642.118	163
642.323	169
642.528	155
642.733	162
642.939	157
643.144	158
643.349	148
643.554	165
643.759	160
643.964	158
644.169	176
644.374	165
644.579	167
644.784	156
644.989	160
645.194	157
645.399	162
645.604	132
645.809	159
646.014	155
646.219	158
646.423	159
646.628	148
646.833	152
647.038	165
647.243	151
647.447	153
647.652	155
647.857	164
648.062	156
648.266	161
648.471	155
648.676	143
648.88	152
649.085	140
649.289	168
649.494	172
649.698	187
649.903	179
650.107	172
650.312	173
650.516	157
650.721	147
650.925	158
651.13	154
651.334	146
651.539	135
651.743	152
651.947	132
652.152	163
652.356	149
652.56	139
652.764	128
652.969	137
653.173	126
653.377	123
653.581	122
653.785	146
653.99	134
654.194	124
654.398	121
654.602	125
654.806	131
655.01	134
655.214	136
655.418	123
655.622	120
655.826	144
656.03	116
656.234	146
656.438	130
656.642	135
656.846	120
657.049	129
657.253	123
657.457	118
657.661	116
657.865	123
658.068	93
658.272	103
658.476	109
658.68	106
658.883	107
659.087	92
659.291	104
659.494	116
659.698	102
659.901	87
660.105	91
660.309	90
660.512	82
660.716	92
660.919	86
661.123	83
661.326	90
661.53	98
661.733	95
661.936	84
662.14	81
662.343	93
662.546	88
662.75	86
662.953	84
663.156	85
663.36	89
663.563	84
663.766	76
663.969	82
664.173	89
664.376	63
664.579	84
664.782	84
664.985	80
665.188	88
665.391	83
665.594	87
665.797	65
666	78
666.203	83
666.406	78
666.609	84
666.812	71
667.015	77
667.218	86
667.421	98
667.624	86
667.827	90
668.03	88
668.232	63
668.435	71
668.638	87
668.841	79
669.043	74
669.246	84
669.449	90
669.651	84
669.854	88
670.057	79
670.259	80
670.462	78
670.665	78
670.867	75
671.07	87
671.272	66
671.475	89
671.677	84
671.88	76
672.082	83
672.284	73
672.487	75
672.689	71
672.892	82
