Data from 1972.PennyLincolnUp.Lamp.En5.5.200Scan.071719.P1._HRD10591_15-27-54-843.txt Node
Date: Thu Jul 18 15:27:54 EDT 2019
User: cochatt
Spectrometer: HR+D1059
Trigger mode: 1
Integration Time (sec): 1.000000E-1
Scans to average: 1
Electric dark correction enabled: true
Nonlinearity correction enabled: false
Boxcar width: 0
XAxis mode: Wavelengths
Number of Pixels in Spectrum: 2048
>>>>>Begin Spectral Data<<<<<
223.165	2
223.4	2
223.635	2
223.869	-17
224.104	-20
224.338	-21
224.573	-15
224.808	-15
225.042	2
225.277	-6
225.511	2
225.746	-13
225.98	-3
226.215	14
226.449	6
226.683	22
226.918	25
227.152	37
227.387	30
227.621	33
227.856	53
228.09	44
228.324	46
228.559	52
228.793	79
229.027	96
229.262	117
229.496	125
229.73	139
229.964	155
230.199	138
230.433	121
230.667	108
230.901	117
231.136	115
231.37	112
231.604	113
231.838	104
232.072	113
232.306	110
232.541	102
232.775	116
233.009	129
233.243	111
233.477	119
233.711	109
233.945	128
234.179	118
234.413	97
234.647	136
234.881	102
235.115	99
235.349	108
235.583	115
235.817	125
236.051	120
236.285	146
236.519	133
236.753	152
236.987	152
237.221	204
237.455	235
237.689	186
237.922	157
238.156	145
238.39	136
238.624	128
238.858	116
239.091	124
239.325	123
239.559	133
239.793	117
240.027	134
240.26	141
240.494	163
240.728	152
240.961	136
241.195	156
241.429	142
241.662	123
241.896	145
242.13	141
242.363	124
242.597	135
242.83	139
243.064	128
243.298	142
243.531	137
243.765	144
243.998	142
244.232	148
244.465	141
244.699	130
244.932	153
245.166	141
245.399	145
245.633	128
245.866	140
246.099	142
246.333	141
246.566	139
246.8	143
247.033	137
247.266	157
247.5	165
247.733	167
247.966	160
248.2	179
248.433	158
248.666	176
248.899	187
249.133	200
249.366	211
249.599	203
249.832	192
250.066	188
250.299	176
250.532	195
250.765	199
250.998	214
251.231	236
251.465	218
251.698	214
251.931	195
252.164	181
252.397	211
252.63	214
252.863	202
253.096	223
253.329	219
253.562	226
253.795	214
254.028	221
254.261	214
254.494	251
254.727	259
254.96	292
255.193	290
255.426	264
255.659	244
255.892	255
256.124	238
256.357	238
256.59	245
256.823	218
257.056	216
257.289	228
257.521	210
257.754	210
257.987	196
258.22	223
258.452	217
258.685	223
258.918	212
259.151	208
259.383	220
259.616	238
259.849	231
260.081	240
260.314	247
260.547	273
260.779	240
261.012	249
261.244	226
261.477	224
261.71	215
261.942	231
262.175	250
262.407	238
262.64	222
262.872	191
263.105	203
263.337	209
263.57	212
263.802	228
264.035	218
264.267	206
264.499	210
264.732	220
264.964	201
265.197	208
265.429	211
265.661	218
265.894	217
266.126	218
266.358	225
266.591	218
266.823	221
267.055	231
267.287	224
267.52	220
267.752	230
267.984	229
268.216	237
268.448	239
268.681	210
268.913	238
269.145	272
269.377	294
269.609	267
269.841	286
270.073	255
270.306	283
270.538	311
270.77	297
271.002	299
271.234	289
271.466	298
271.698	287
271.93	340
272.162	325
272.394	319
272.626	304
272.858	295
273.09	288
273.322	263
273.553	262
273.785	287
274.017	258
274.249	255
274.481	256
274.713	264
274.945	261
275.176	271
275.408	246
275.64	265
275.872	269
276.104	249
276.335	256
276.567	271
276.799	279
277.031	310
277.262	327
277.494	327
277.726	298
277.957	295
278.189	277
278.421	271
278.652	253
278.884	277
279.115	271
279.347	268
279.579	265
279.81	272
280.042	263
280.273	268
280.505	264
280.736	252
280.968	250
281.199	277
281.431	243
281.662	245
281.894	244
282.125	264
282.356	284
282.588	292
282.819	308
283.051	288
283.282	266
283.513	273
283.745	284
283.976	260
284.207	255
284.439	272
284.67	268
284.901	251
285.132	251
285.364	251
285.595	269
285.826	252
286.057	276
286.288	284
286.52	286
286.751	268
286.982	251
287.213	296
287.444	270
287.675	277
287.906	292
288.138	268
288.369	276
288.6	273
288.831	283
289.062	280
289.293	287
289.524	273
289.755	289
289.986	282
290.217	270
290.448	292
290.679	265
290.91	280
291.141	270
291.371	289
291.602	285
291.833	277
292.064	281
292.295	277
292.526	274
292.757	283
292.987	275
293.218	286
293.449	291
293.68	287
293.91	292
294.141	275
294.372	265
294.603	263
294.833	241
295.064	285
295.295	289
295.525	270
295.756	270
295.987	285
296.217	320
296.448	329
296.679	290
296.909	272
297.14	283
297.37	274
297.601	294
297.831	267
298.062	283
298.292	294
298.523	300
298.753	300
298.984	277
299.214	299
299.445	287
299.675	302
299.905	302
300.136	297
300.366	271
300.597	273
300.827	314
301.057	309
301.288	304
301.518	308
301.748	290
301.979	289
302.209	322
302.439	299
302.669	307
302.9	307
303.13	297
303.36	321
303.59	327
303.82	316
304.051	306
304.281	291
304.511	308
304.741	284
304.971	328
305.201	316
305.431	309
305.661	297
305.891	290
306.121	297
306.352	332
306.582	310
306.812	311
307.042	324
307.272	310
307.502	321
307.731	328
307.961	329
308.191	314
308.421	307
308.651	317
308.881	317
309.111	332
309.341	318
309.571	323
309.8	345
310.03	357
310.26	354
310.49	363
310.72	382
310.949	389
311.179	391
311.409	368
311.639	369
311.868	365
312.098	365
312.328	352
312.557	392
312.787	411
313.017	401
313.246	360
313.476	360
313.706	356
313.935	360
314.165	390
314.394	393
314.624	387
314.853	366
315.083	381
315.312	366
315.542	359
315.771	342
316.001	356
316.23	350
316.46	360
316.689	345
316.919	381
317.148	371
317.377	377
317.607	349
317.836	381
318.065	356
318.295	361
318.524	367
318.753	351
318.983	356
319.212	337
319.441	380
319.67	385
319.9	380
320.129	367
320.358	367
320.587	388
320.816	403
321.046	388
321.275	381
321.504	387
321.733	391
321.962	395
322.191	421
322.42	423
322.649	447
322.878	444
323.108	488
323.337	486
323.566	497
323.795	559
324.024	613
324.253	769
324.482	1123
324.71	1701
324.939	2572
325.168	2221
325.397	1116
325.626	719
325.855	595
326.084	554
326.313	517
326.542	531
326.77	573
326.999	684
327.228	965
327.457	1535
327.686	1883
327.914	1261
328.143	796
328.372	708
328.6	637
328.829	607
329.058	598
329.287	614
329.515	549
329.744	532
329.972	519
330.201	555
330.43	602
330.658	621
330.887	677
331.115	609
331.344	531
331.572	494
331.801	483
332.03	490
332.258	441
332.486	437
332.715	436
332.943	420
333.172	426
333.4	441
333.629	460
333.857	478
334.085	467
334.314	481
334.542	528
334.771	560
334.999	490
335.227	459
335.455	442
335.684	445
335.912	412
336.14	401
336.369	417
336.597	413
336.825	403
337.053	409
337.281	417
337.51	413
337.738	426
337.966	419
338.194	412
338.422	423
338.65	431
338.878	390
339.106	371
339.334	400
339.562	392
339.79	377
340.018	409
340.246	414
340.474	423
340.702	405
340.93	403
341.158	395
341.386	402
341.614	421
341.842	402
342.07	383
342.298	392
342.526	391
342.754	394
342.981	386
343.209	410
343.437	400
343.665	379
343.893	383
344.12	406
344.348	368
344.576	424
344.804	420
345.031	403
345.259	438
345.487	428
345.714	417
345.942	416
346.17	379
346.397	410
346.625	416
346.853	401
347.08	393
347.308	397
347.535	401
347.763	397
347.99	427
348.218	419
348.445	412
348.673	420
348.9	391
349.128	408
349.355	373
349.583	376
349.81	361
350.037	379
350.265	383
350.492	378
350.72	399
350.947	387
351.174	397
351.402	412
351.629	405
351.856	398
352.083	405
352.311	408
352.538	388
352.765	403
352.992	387
353.22	393
353.447	378
353.674	390
353.901	373
354.128	364
354.355	371
354.583	365
354.81	341
355.037	356
355.264	348
355.491	359
355.718	368
355.945	359
356.172	348
356.399	345
356.626	350
356.853	356
357.08	372
357.307	358
357.534	338
357.761	336
357.988	365
358.215	350
358.441	347
358.668	373
358.895	376
359.122	376
359.349	395
359.576	402
359.802	431
360.029	453
360.256	461
360.483	451
360.709	403
360.936	392
361.163	389
361.39	396
361.616	397
361.843	391
362.07	381
362.296	396
362.523	393
362.749	375
362.976	377
363.203	390
363.429	364
363.656	365
363.882	383
364.109	369
364.335	351
364.562	385
364.788	348
365.015	367
365.241	367
365.468	367
365.694	361
365.92	380
366.147	371
366.373	359
366.599	351
366.826	363
367.052	352
367.278	369
367.505	367
367.731	374
367.957	361
368.184	366
368.41	375
368.636	378
368.862	392
369.089	381
369.315	354
369.541	359
369.767	356
369.993	351
370.219	347
370.445	367
370.672	336
370.898	344
371.124	356
371.35	351
371.576	376
371.802	361
372.028	332
372.254	355
372.48	329
372.706	348
372.932	347
373.158	348
373.384	346
373.61	359
373.835	357
374.061	341
374.287	376
374.513	362
374.739	372
374.965	350
375.191	350
375.416	349
375.642	360
375.868	365
376.094	362
376.319	338
376.545	360
376.771	359
376.997	349
377.222	346
377.448	328
377.674	356
377.899	345
378.125	341
378.35	340
378.576	333
378.802	330
379.027	332
379.253	366
379.478	347
379.704	334
379.929	352
380.155	368
380.38	351
380.606	354
380.831	356
381.057	359
381.282	354
381.507	358
381.733	343
381.958	356
382.184	360
382.409	343
382.634	344
382.86	323
383.085	368
383.31	377
383.535	371
383.761	351
383.986	366
384.211	364
384.436	358
384.662	372
384.887	357
385.112	358
385.337	348
385.562	364
385.787	374
386.013	392
386.238	393
386.463	391
386.688	394
386.913	360
387.138	360
387.363	352
387.588	352
387.813	371
388.038	366
388.263	380
388.488	375
388.713	392
388.938	363
389.163	392
389.387	365
389.612	362
389.837	364
390.062	375
390.287	354
390.512	375
390.736	371
390.961	378
391.186	380
391.411	358
391.636	389
391.86	377
392.085	378
392.31	360
392.534	371
392.759	375
392.984	388
393.208	396
393.433	396
393.658	383
393.882	387
394.107	377
394.331	381
394.556	349
394.78	360
395.005	387
395.229	374
395.454	383
395.678	389
395.903	409
396.127	403
396.352	438
396.576	392
396.801	414
397.025	414
397.249	395
397.474	395
397.698	399
397.922	402
398.147	423
398.371	407
398.595	415
398.82	418
399.044	405
399.268	414
399.492	442
399.717	455
399.941	478
400.165	513
400.389	509
400.613	469
400.837	451
401.062	439
401.286	419
401.51	427
401.734	402
401.958	409
402.182	425
402.406	441
402.63	425
402.854	431
403.078	427
403.302	436
403.526	433
403.75	459
403.974	441
404.198	430
404.422	441
404.645	453
404.869	439
405.093	478
405.317	525
405.541	539
405.765	513
405.988	478
406.212	501
406.436	505
406.66	483
406.883	487
407.107	489
407.331	548
407.555	590
407.778	592
408.002	559
408.226	501
408.449	485
408.673	500
408.896	520
409.12	560
409.344	519
409.567	468
409.791	461
410.014	451
410.238	416
410.461	461
410.685	461
410.908	461
411.132	496
411.355	523
411.578	507
411.802	452
412.025	455
412.249	448
412.472	468
412.695	510
412.919	504
413.142	454
413.365	446
413.589	426
413.812	406
414.035	431
414.258	407
414.482	397
414.705	423
414.928	392
415.151	413
415.374	417
415.597	411
415.821	401
416.044	422
416.267	417
416.49	408
416.713	414
416.936	420
417.159	425
417.382	423
417.605	428
417.828	445
418.051	447
418.274	453
418.497	437
418.72	420
418.943	420
419.166	431
419.389	458
419.611	437
419.834	437
420.057	459
420.28	445
420.503	428
420.726	447
420.948	457
421.171	497
421.394	505
421.617	465
421.839	447
422.062	443
422.285	469
422.507	537
422.73	615
422.953	574
423.175	519
423.398	469
423.621	464
423.843	467
424.066	480
424.288	481
424.511	496
424.733	568
424.956	636
425.178	619
425.401	611
425.623	639
425.846	535
426.068	517
426.291	494
426.513	493
426.735	516
426.958	525
427.18	606
427.402	755
427.625	841
427.847	755
428.069	664
428.292	577
428.514	527
428.736	480
428.958	466
429.181	455
429.403	441
429.625	452
429.847	507
430.069	568
430.292	571
430.514	476
430.736	474
430.958	455
431.18	437
431.402	426
431.624	425
431.846	424
432.068	411
432.29	404
432.512	391
432.734	436
432.956	437
433.178	426
433.4	446
433.622	432
433.844	431
434.066	412
434.287	402
434.509	438
434.731	437
434.953	447
435.175	454
435.397	481
435.618	492
435.84	557
436.062	649
436.284	702
436.505	560
436.727	504
436.949	464
437.17	460
437.392	458
437.614	477
437.835	525
438.057	621
438.278	735
438.5	712
438.721	759
438.943	757
439.165	589
439.386	529
439.608	518
439.829	521
440.05	543
440.272	609
440.493	572
440.715	503
440.936	498
441.158	467
441.379	451
441.6	484
441.822	513
442.043	559
442.264	616
442.486	673
442.707	566
442.928	525
443.149	517
443.371	532
443.592	583
443.813	683
444.034	733
444.255	610
444.476	529
444.698	481
444.919	484
445.14	580
445.361	544
445.582	533
445.803	607
446.024	720
446.245	734
446.466	648
446.687	547
446.908	499
447.129	472
447.35	473
447.571	465
447.792	465
448.013	452
448.234	478
448.455	527
448.675	648
448.896	760
449.117	638
449.338	615
449.559	700
449.779	821
450	658
450.221	537
450.442	494
450.662	463
450.883	489
451.104	492
451.324	474
451.545	465
451.766	436
451.986	415
452.207	427
452.428	432
452.648	417
452.869	418
453.089	427
453.31	430
453.53	425
453.751	410
453.971	401
454.192	458
454.412	440
454.633	406
454.853	419
455.073	405
455.294	454
455.514	505
455.734	494
455.955	428
456.175	407
456.395	391
456.616	380
456.836	390
457.056	375
457.276	369
457.497	393
457.717	381
457.937	391
458.157	384
458.377	423
458.598	440
458.818	470
459.038	573
459.258	605
459.478	491
459.698	464
459.918	430
460.138	437
460.358	423
460.578	424
460.798	416
461.018	419
461.238	413
461.458	414
461.678	408
461.898	415
462.118	407
462.338	428
462.558	424
462.777	419
462.997	436
463.217	433
463.437	433
463.657	432
463.876	450
464.096	438
464.316	454
464.536	441
464.755	445
464.975	475
465.195	506
465.414	605
465.634	529
465.854	465
466.073	432
466.293	433
466.512	443
466.732	432
466.951	407
467.171	403
467.391	430
467.61	424
467.829	411
468.049	449
468.268	435
468.488	417
468.707	397
468.927	386
469.146	411
469.365	413
469.585	419
469.804	407
470.023	423
470.243	430
470.462	428
470.681	457
470.901	434
471.12	432
471.339	425
471.558	430
471.777	451
471.997	417
472.216	445
472.435	483
472.654	468
472.873	424
473.092	409
473.311	435
473.53	425
473.749	441
473.968	481
474.187	588
474.406	615
474.625	485
474.844	421
475.063	425
475.282	431
475.501	441
475.72	444
475.939	423
476.158	431
476.377	430
476.596	429
476.814	442
477.033	463
477.252	460
477.471	443
477.69	458
477.908	442
478.127	470
478.346	437
478.564	447
478.783	451
479.002	461
479.22	466
479.439	480
479.658	511
479.876	501
480.095	502
480.313	531
480.532	543
480.751	507
480.969	538
481.188	596
481.406	679
481.624	578
481.843	528
482.061	532
482.28	509
482.498	499
482.717	485
482.935	489
483.153	495
483.372	496
483.59	490
483.808	491
484.027	517
484.245	483
484.463	496
484.681	524
484.9	491
485.118	501
485.336	489
485.554	503
485.772	524
485.99	514
486.209	526
486.427	516
486.645	517
486.863	550
487.081	541
487.299	523
487.517	536
487.735	524
487.953	553
488.171	535
488.389	545
488.607	532
488.825	518
489.043	539
489.261	547
489.479	553
489.696	543
489.914	547
490.132	559
490.35	546
490.568	564
490.786	569
491.003	569
491.221	597
491.439	576
491.657	611
491.874	620
492.092	624
492.31	612
492.527	636
492.745	613
492.963	635
493.18	630
493.398	623
493.615	622
493.833	632
494.05	632
494.268	624
494.485	643
494.703	636
494.92	635
495.138	656
495.355	622
495.573	638
495.79	649
496.008	638
496.225	630
496.442	639
496.66	630
496.877	642
497.094	621
497.312	632
497.529	649
497.746	658
497.963	656
498.181	695
498.398	677
498.615	687
498.832	718
499.049	669
499.267	702
499.484	733
499.701	736
499.918	735
500.135	758
500.352	772
500.569	777
500.786	780
501.003	804
501.22	777
501.437	781
501.654	746
501.871	751
502.088	766
502.305	723
502.522	713
502.739	693
502.956	681
503.172	658
503.389	657
503.606	659
503.823	673
504.04	635
504.256	635
504.473	640
504.69	604
504.907	623
505.123	637
505.34	620
505.557	628
505.773	620
505.99	624
506.207	612
506.423	599
506.64	599
506.856	631
507.073	607
507.289	603
507.506	595
507.722	616
507.939	623
508.155	625
508.372	614
508.588	589
508.805	583
509.021	594
509.238	603
509.454	621
509.67	596
509.887	575
510.103	595
510.319	606
510.536	727
510.752	1258
510.968	1008
511.184	637
511.401	580
511.617	586
511.833	569
512.049	575
512.265	574
512.481	571
512.698	542
512.914	573
513.13	571
513.346	553
513.562	571
513.778	584
513.994	589
514.21	601
514.426	605
514.642	641
514.858	725
515.074	729
515.29	901
515.506	1403
515.721	1133
515.937	749
516.153	646
516.369	632
516.585	592
516.801	571
517.016	588
517.232	575
517.448	567
517.664	588
517.879	569
518.095	569
518.311	559
518.527	555
518.742	565
518.958	550
519.173	548
519.389	573
519.605	559
519.82	581
520.036	593
520.251	633
520.467	654
520.682	632
520.898	660
521.113	686
521.329	751
521.544	848
521.76	1124
521.975	1888
522.19	1827
522.406	966
522.621	731
522.836	623
523.052	593
523.267	549
523.482	535
523.698	545
523.913	539
524.128	534
524.343	523
524.559	487
524.774	492
524.989	492
525.204	481
525.419	515
525.634	497
525.849	474
526.064	480
526.28	495
526.495	478
526.71	474
526.925	472
527.14	477
527.355	478
527.57	461
527.785	464
527.999	438
528.214	437
528.429	466
528.644	438
528.859	451
529.074	471
529.289	504
529.503	580
529.718	572
529.933	510
530.148	491
530.363	492
530.577	478
530.792	447
531.007	460
531.221	451
531.436	427
531.651	441
531.865	452
532.08	420
532.295	455
532.509	452
532.724	433
532.938	439
533.153	441
533.367	425
533.582	426
533.796	417
534.011	437
534.225	419
534.44	401
534.654	443
534.868	422
535.083	410
535.297	417
535.511	410
535.726	431
535.94	456
536.154	437
536.369	439
536.583	416
536.797	433
537.011	418
537.225	409
537.44	412
537.654	421
537.868	425
538.082	405
538.296	438
538.51	415
538.724	414
538.938	413
539.153	411
539.367	428
539.581	429
539.795	429
540.009	407
540.222	404
540.436	422
540.65	406
540.864	418
541.078	431
541.292	439
541.506	394
541.72	425
541.934	398
542.147	409
542.361	432
542.575	427
542.789	426
543.002	409
543.216	410
543.43	445
543.644	430
543.857	418
544.071	419
544.285	416
544.498	407
544.712	389
544.925	420
545.139	410
545.352	410
545.566	406
545.779	394
545.993	398
546.206	383
546.42	387
546.633	399
546.847	409
547.06	382
547.274	363
547.487	397
547.7	385
547.914	401
548.127	382
548.34	374
548.554	377
548.767	390
548.98	406
549.193	395
549.407	380
549.62	397
549.833	383
550.046	397
550.259	381
550.473	387
550.686	378
550.899	384
551.112	380
551.325	375
551.538	393
551.751	395
551.964	377
552.177	366
552.39	365
552.603	381
552.816	375
553.029	375
553.242	371
553.455	386
553.667	397
553.88	401
554.093	404
554.306	410
554.519	401
554.732	381
554.944	375
555.157	358
555.37	379
555.583	371
555.795	389
556.008	358
556.221	385
556.433	355
556.646	349
556.859	351
557.071	335
557.284	355
557.496	361
557.709	343
557.921	373
558.134	347
558.346	361
558.559	341
558.771	351
558.984	337
559.196	356
559.409	343
559.621	349
559.833	329
560.046	341
560.258	336
560.47	359
560.683	353
560.895	339
561.107	344
561.32	335
561.532	338
561.744	356
561.956	337
562.168	333
562.381	323
562.593	332
562.805	347
563.017	357
563.229	350
563.441	355
563.653	334
563.865	333
564.077	357
564.289	349
564.501	346
564.713	355
564.925	347
565.137	381
565.349	377
565.561	369
565.773	386
565.985	387
566.197	396
566.408	385
566.62	381
566.832	389
567.044	390
567.255	392
567.467	373
567.679	397
567.891	384
568.102	402
568.314	397
568.526	377
568.737	369
568.949	380
569.161	364
569.372	348
569.584	353
569.795	359
570.007	348
570.218	425
570.43	393
570.641	340
570.853	339
571.064	363
571.276	334
571.487	329
571.698	318
571.91	322
572.121	331
572.333	320
572.544	323
572.755	312
572.966	320
573.178	310
573.389	318
573.6	317
573.811	313
574.023	284
574.234	297
574.445	307
574.656	309
574.867	312
575.078	296
575.289	312
575.501	297
575.712	294
575.923	300
576.134	312
576.345	303
576.556	283
576.767	312
576.978	297
577.188	296
577.399	308
577.61	287
577.821	303
578.032	303
578.243	338
578.454	598
578.665	431
578.875	299
579.086	291
579.297	294
579.508	301
579.718	277
579.929	277
580.14	283
580.35	271
580.561	275
580.772	285
580.982	277
581.193	273
581.403	268
581.614	302
581.825	263
582.035	269
582.246	281
582.456	278
582.667	291
582.877	259
583.087	258
583.298	277
583.508	287
583.719	296
583.929	280
584.139	276
584.35	270
584.56	264
584.77	277
584.981	273
585.191	279
585.401	269
585.611	283
585.821	278
586.032	270
586.242	271
586.452	279
586.662	260
586.872	267
587.082	260
587.292	276
587.502	270
587.713	271
587.923	279
588.133	264
588.343	267
588.553	260
588.762	259
588.972	268
589.182	255
589.392	282
589.602	290
589.812	273
590.022	271
590.232	273
590.441	264
590.651	273
590.861	269
591.071	257
591.281	262
591.49	266
591.7	268
591.91	279
592.119	255
592.329	274
592.539	278
592.748	277
592.958	257
593.167	268
593.377	268
593.587	278
593.796	265
594.006	283
594.215	263
594.424	261
594.634	254
594.843	269
595.053	260
595.262	267
595.472	258
595.681	255
595.89	277
596.1	256
596.309	258
596.518	260
596.727	264
596.937	268
597.146	260
597.355	261
597.564	257
597.774	260
597.983	247
598.192	224
598.401	229
598.61	234
598.819	248
599.028	255
599.237	244
599.446	252
599.655	235
599.864	250
600.073	229
600.282	241
600.491	233
600.7	237
600.909	236
601.118	248
601.327	245
601.536	235
601.745	232
601.953	228
602.162	222
602.371	233
602.58	237
602.789	237
602.997	209
603.206	237
603.415	222
603.623	240
603.832	235
604.041	230
604.249	232
604.458	228
604.666	244
604.875	238
605.084	236
605.292	222
605.501	231
605.709	210
605.918	221
606.126	257
606.334	230
606.543	227
606.751	228
606.96	239
607.168	240
607.376	227
607.585	225
607.793	224
608.001	203
608.21	228
608.418	225
608.626	221
608.834	222
609.043	211
609.251	210
609.459	228
609.667	230
609.875	223
610.083	225
610.291	228
610.499	219
610.707	225
610.916	220
611.124	233
611.332	226
611.54	209
611.748	233
611.955	219
612.163	203
612.371	233
612.579	215
612.787	213
612.995	221
613.203	217
613.411	209
613.618	209
613.826	216
614.034	235
614.242	212
614.449	229
614.657	216
614.865	220
615.072	224
615.28	216
615.488	222
615.695	221
615.903	205
616.111	213
616.318	220
616.526	217
616.733	240
616.941	196
617.148	208
617.356	202
617.563	222
617.771	208
617.978	213
618.185	222
618.393	206
618.6	206
618.807	227
619.015	205
619.222	204
619.429	221
619.637	205
619.844	217
620.051	202
620.258	221
620.466	201
620.673	198
620.88	198
621.087	200
621.294	203
621.501	191
621.708	197
621.915	222
622.122	212
622.329	209
622.536	216
622.743	214
622.95	204
623.157	192
623.364	193
623.571	211
623.778	205
623.985	208
624.192	200
624.399	195
624.606	189
624.812	219
625.019	201
625.226	198
625.433	201
625.639	183
625.846	199
626.053	198
626.259	187
626.466	190
626.673	220
626.879	191
627.086	176
627.293	193
627.499	192
627.706	200
627.912	184
628.119	182
628.325	189
628.532	171
628.738	200
628.945	189
629.151	190
629.357	177
629.564	167
629.77	196
629.976	180
630.183	192
630.389	187
630.595	196
630.802	173
631.008	179
631.214	187
631.42	185
631.627	187
631.833	169
632.039	179
632.245	189
632.451	179
632.657	179
632.863	169
633.069	171
633.275	174
633.481	175
633.688	167
633.893	169
634.099	167
634.305	172
634.511	183
634.717	184
634.923	171
635.129	171
635.335	174
635.541	171
635.747	159
635.952	157
636.158	167
636.364	187
636.57	176
636.775	183
636.981	172
637.187	178
637.392	163
637.598	171
637.804	182
638.009	161
638.215	178
638.421	161
638.626	167
638.832	153
639.037	173
639.243	175
639.448	162
639.654	160
639.859	157
640.065	154
640.27	190
640.475	160
640.681	173
640.886	163
641.091	175
641.297	159
641.502	149
641.707	141
641.913	158
642.118	149
642.323	146
642.528	173
642.733	164
642.939	169
643.144	170
643.349	156
643.554	163
643.759	159
643.964	163
644.169	158
644.374	162
644.579	149
644.784	169
644.989	168
645.194	157
645.399	158
645.604	159
645.809	165
646.014	150
646.219	153
646.423	139
646.628	141
646.833	149
647.038	152
647.243	182
647.447	159
647.652	149
647.857	157
648.062	148
648.266	153
648.471	171
648.676	158
648.88	155
649.085	164
649.289	144
649.494	187
649.698	191
649.903	171
650.107	168
650.312	151
650.516	145
650.721	140
650.925	148
651.13	133
651.334	158
651.539	133
651.743	143
651.947	155
652.152	135
652.356	138
652.56	135
652.764	127
652.969	135
653.173	136
653.377	144
653.581	144
653.785	135
653.99	124
654.194	143
654.398	127
654.602	134
654.806	135
655.01	143
655.214	125
655.418	136
655.622	128
655.826	119
656.03	121
656.234	127
656.438	132
656.642	123
656.846	119
657.049	129
657.253	127
657.457	123
657.661	108
657.865	106
658.068	112
658.272	121
658.476	100
658.68	122
658.883	111
659.087	127
659.291	103
659.494	97
659.698	96
659.901	103
660.105	90
660.309	100
660.512	83
660.716	105
660.919	88
661.123	102
661.326	84
661.53	99
661.733	99
661.936	94
662.14	80
662.343	73
662.546	85
662.75	80
662.953	91
663.156	85
663.36	91
663.563	88
663.766	82
663.969	87
664.173	83
664.376	81
664.579	69
664.782	79
664.985	84
665.188	105
665.391	83
665.594	85
665.797	85
666	99
666.203	80
666.406	81
666.609	85
666.812	80
667.015	88
667.218	90
667.421	75
667.624	88
667.827	89
668.03	88
668.232	84
668.435	87
668.638	89
668.841	82
669.043	85
669.246	74
669.449	86
669.651	90
669.854	77
670.057	85
670.259	65
670.462	77
670.665	90
670.867	87
671.07	94
671.272	90
671.475	93
671.677	71
671.88	83
672.082	67
672.284	86
672.487	84
672.689	72
672.892	89
