Data from 1973.PennyLincolnUp.Lamp.En5.5.200Scan.071719.P1.Changed Mount._HRD10591_15-43-35-852.txt Node
Date: Thu Jul 18 15:43:35 EDT 2019
User: cochatt
Spectrometer: HR+D1059
Trigger mode: 1
Integration Time (sec): 1.000000E-1
Scans to average: 1
Electric dark correction enabled: true
Nonlinearity correction enabled: false
Boxcar width: 0
XAxis mode: Wavelengths
Number of Pixels in Spectrum: 2048
>>>>>Begin Spectral Data<<<<<
223.165	-26
223.4	-26
223.635	-26
223.869	-14
224.104	-21
224.338	-20
224.573	-18
224.808	-12
225.042	-9
225.277	9
225.511	3
225.746	6
225.98	15
226.215	6
226.449	20
226.683	8
226.918	28
227.152	25
227.387	27
227.621	40
227.856	37
228.09	48
228.324	52
228.559	66
228.793	73
229.027	96
229.262	90
229.496	101
229.73	110
229.964	115
230.199	104
230.433	106
230.667	118
230.901	105
231.136	95
231.37	107
231.604	118
231.838	101
232.072	103
232.306	124
232.541	106
232.775	107
233.009	109
233.243	108
233.477	110
233.711	112
233.945	106
234.179	123
234.413	130
234.647	116
234.881	109
235.115	121
235.349	123
235.583	120
235.817	119
236.051	124
236.285	135
236.519	106
236.753	112
236.987	127
237.221	140
237.455	176
237.689	152
237.922	132
238.156	131
238.39	134
238.624	117
238.858	118
239.091	129
239.325	112
239.559	121
239.793	118
240.027	125
240.26	131
240.494	138
240.728	123
240.961	130
241.195	138
241.429	132
241.662	131
241.896	123
242.13	124
242.363	128
242.597	139
242.83	135
243.064	145
243.298	143
243.531	136
243.765	140
243.998	140
244.232	133
244.465	143
244.699	126
244.932	145
245.166	140
245.399	136
245.633	139
245.866	138
246.099	145
246.333	124
246.566	160
246.8	153
247.033	147
247.266	142
247.5	155
247.733	150
247.966	166
248.2	162
248.433	157
248.666	166
248.899	165
249.133	182
249.366	178
249.599	179
249.832	170
250.066	160
250.299	157
250.532	183
250.765	184
250.998	193
251.231	178
251.465	192
251.698	188
251.931	171
252.164	167
252.397	183
252.63	192
252.863	182
253.096	203
253.329	204
253.562	196
253.795	195
254.028	205
254.261	195
254.494	202
254.727	230
254.96	234
255.193	232
255.426	213
255.659	197
255.892	196
256.124	202
256.357	211
256.59	199
256.823	176
257.056	197
257.289	189
257.521	194
257.754	188
257.987	201
258.22	194
258.452	193
258.685	184
258.918	195
259.151	204
259.383	193
259.616	202
259.849	207
260.081	209
260.314	228
260.547	246
260.779	224
261.012	238
261.244	221
261.477	205
261.71	219
261.942	205
262.175	221
262.407	205
262.64	212
262.872	218
263.105	200
263.337	212
263.57	210
263.802	223
264.035	203
264.267	212
264.499	200
264.732	197
264.964	196
265.197	203
265.429	207
265.661	216
265.894	201
266.126	217
266.358	223
266.591	208
266.823	215
267.055	211
267.287	220
267.52	223
267.752	232
267.984	236
268.216	223
268.448	211
268.681	235
268.913	220
269.145	247
269.377	244
269.609	242
269.841	247
270.073	259
270.306	266
270.538	294
270.77	290
271.002	286
271.234	254
271.466	263
271.698	277
271.93	300
272.162	284
272.394	275
272.626	266
272.858	254
273.09	250
273.322	238
273.553	261
273.785	254
274.017	272
274.249	254
274.481	248
274.713	262
274.945	271
275.176	246
275.408	255
275.64	272
275.872	250
276.104	247
276.335	244
276.567	247
276.799	252
277.031	295
277.262	263
277.494	282
277.726	288
277.957	267
278.189	258
278.421	266
278.652	280
278.884	266
279.115	252
279.347	272
279.579	272
279.81	254
280.042	252
280.273	252
280.505	246
280.736	259
280.968	266
281.199	268
281.431	270
281.662	261
281.894	263
282.125	290
282.356	277
282.588	279
282.819	286
283.051	279
283.282	277
283.513	286
283.745	287
283.976	283
284.207	279
284.439	283
284.67	294
284.901	293
285.132	279
285.364	292
285.595	299
285.826	284
286.057	291
286.288	287
286.52	292
286.751	310
286.982	306
287.213	270
287.444	275
287.675	262
287.906	286
288.138	322
288.369	285
288.6	293
288.831	292
289.062	299
289.293	297
289.524	272
289.755	280
289.986	284
290.217	292
290.448	292
290.679	271
290.91	295
291.141	314
291.371	289
291.602	307
291.833	307
292.064	316
292.295	275
292.526	302
292.757	279
292.987	306
293.218	296
293.449	297
293.68	312
293.91	297
294.141	292
294.372	297
294.603	301
294.833	309
295.064	303
295.295	294
295.525	310
295.756	322
295.987	311
296.217	323
296.448	296
296.679	296
296.909	289
297.14	306
297.37	308
297.601	307
297.831	313
298.062	312
298.292	324
298.523	312
298.753	306
298.984	316
299.214	322
299.445	300
299.675	324
299.905	307
300.136	319
300.366	316
300.597	324
300.827	338
301.057	328
301.288	332
301.518	314
301.748	323
301.979	334
302.209	345
302.439	328
302.669	334
302.9	318
303.13	317
303.36	320
303.59	314
303.82	341
304.051	330
304.281	328
304.511	326
304.741	328
304.971	326
305.201	328
305.431	347
305.661	346
305.891	335
306.121	326
306.352	329
306.582	331
306.812	331
307.042	321
307.272	330
307.502	326
307.731	327
307.961	327
308.191	336
308.421	330
308.651	344
308.881	330
309.111	324
309.341	311
309.571	310
309.8	349
310.03	334
310.26	334
310.49	344
310.72	341
310.949	365
311.179	342
311.409	358
311.639	359
311.868	348
312.098	358
312.328	353
312.557	364
312.787	392
313.017	351
313.246	370
313.476	346
313.706	348
313.935	373
314.165	346
314.394	366
314.624	364
314.853	358
315.083	357
315.312	377
315.542	351
315.771	354
316.001	367
316.23	359
316.46	352
316.689	357
316.919	358
317.148	359
317.377	367
317.607	358
317.836	359
318.065	379
318.295	370
318.524	348
318.753	354
318.983	367
319.212	354
319.441	351
319.67	359
319.9	350
320.129	359
320.358	363
320.587	367
320.816	375
321.046	367
321.275	352
321.504	362
321.733	372
321.962	373
322.191	382
322.42	391
322.649	413
322.878	389
323.108	399
323.337	398
323.566	406
323.795	435
324.024	444
324.253	481
324.482	607
324.71	841
324.939	1159
325.168	1058
325.397	573
325.626	447
325.855	415
326.084	429
326.313	426
326.542	416
326.77	438
326.999	469
327.228	570
327.457	787
327.686	917
327.914	657
328.143	512
328.372	459
328.6	460
328.829	443
329.058	431
329.287	452
329.515	443
329.744	414
329.972	435
330.201	431
330.43	446
330.658	422
330.887	463
331.115	466
331.344	431
331.572	439
331.801	423
332.03	427
332.258	430
332.486	432
332.715	439
332.943	430
333.172	452
333.4	461
333.629	470
333.857	486
334.085	479
334.314	485
334.542	476
334.771	507
334.999	468
335.227	430
335.455	450
335.684	455
335.912	460
336.14	451
336.369	420
336.597	461
336.825	444
337.053	441
337.281	414
337.51	414
337.738	425
337.966	418
338.194	437
338.422	431
338.65	429
338.878	404
339.106	398
339.334	402
339.562	425
339.79	416
340.018	421
340.246	410
340.474	414
340.702	421
340.93	412
341.158	408
341.386	401
341.614	414
341.842	411
342.07	399
342.298	394
342.526	402
342.754	416
342.981	383
343.209	406
343.437	425
343.665	422
343.893	423
344.12	447
344.348	454
344.576	428
344.804	426
345.031	414
345.259	439
345.487	404
345.714	422
345.942	398
346.17	399
346.397	403
346.625	392
346.853	382
347.08	359
347.308	372
347.535	386
347.763	385
347.99	396
348.218	392
348.445	389
348.673	388
348.9	400
349.128	371
349.355	380
349.583	396
349.81	384
350.037	371
350.265	377
350.492	400
350.72	378
350.947	367
351.174	386
351.402	406
351.629	376
351.856	386
352.083	400
352.311	402
352.538	405
352.765	383
352.992	424
353.22	403
353.447	391
353.674	381
353.901	369
354.128	363
354.355	374
354.583	368
354.81	379
355.037	384
355.264	341
355.491	344
355.718	393
355.945	363
356.172	365
356.399	366
356.626	356
356.853	379
357.08	382
357.307	378
357.534	366
357.761	379
357.988	387
358.215	378
358.441	377
358.668	380
358.895	380
359.122	370
359.349	375
359.576	375
359.802	414
360.029	404
360.256	403
360.483	396
360.709	414
360.936	400
361.163	378
361.39	398
361.616	395
361.843	393
362.07	388
362.296	378
362.523	384
362.749	389
362.976	376
363.203	382
363.429	367
363.656	369
363.882	373
364.109	368
364.335	390
364.562	366
364.788	354
365.015	371
365.241	385
365.468	376
365.694	361
365.92	363
366.147	380
366.373	376
366.599	386
366.826	366
367.052	388
367.278	362
367.505	376
367.731	378
367.957	390
368.184	380
368.41	382
368.636	405
368.862	409
369.089	405
369.315	391
369.541	393
369.767	377
369.993	369
370.219	384
370.445	377
370.672	375
370.898	377
371.124	388
371.35	374
371.576	395
371.802	379
372.028	394
372.254	390
372.48	396
372.706	391
372.932	391
373.158	391
373.384	402
373.61	387
373.835	398
374.061	387
374.287	408
374.513	400
374.739	392
374.965	416
375.191	395
375.416	419
375.642	423
375.868	395
376.094	401
376.319	400
376.545	393
376.771	384
376.997	378
377.222	399
377.448	392
377.674	378
377.899	377
378.125	380
378.35	389
378.576	360
378.802	407
379.027	386
379.253	396
379.478	399
379.704	396
379.929	401
380.155	378
380.38	382
380.606	393
380.831	390
381.057	401
381.282	388
381.507	393
381.733	388
381.958	407
382.184	406
382.409	400
382.634	403
382.86	414
383.085	410
383.31	400
383.535	425
383.761	412
383.986	418
384.211	427
384.436	411
384.662	428
384.887	436
385.112	429
385.337	430
385.562	462
385.787	455
386.013	448
386.238	458
386.463	458
386.688	455
386.913	426
387.138	451
387.363	446
387.588	446
387.813	432
388.038	430
388.263	441
388.488	458
388.713	443
388.938	443
389.163	431
389.387	433
389.612	434
389.837	457
390.062	428
390.287	426
390.512	439
390.736	456
390.961	435
391.186	458
391.411	476
391.636	441
391.86	460
392.085	479
392.31	450
392.534	445
392.759	466
392.984	450
393.208	447
393.433	449
393.658	446
393.882	452
394.107	450
394.331	452
394.556	431
394.78	455
395.005	450
395.229	447
395.454	466
395.678	458
395.903	492
396.127	465
396.352	485
396.576	447
396.801	440
397.025	450
397.249	461
397.474	477
397.698	483
397.922	502
398.147	489
398.371	478
398.595	487
398.82	518
399.044	544
399.268	569
399.492	594
399.717	616
399.941	676
400.165	641
400.389	653
400.613	574
400.837	540
401.062	542
401.286	528
401.51	522
401.734	503
401.958	514
402.182	518
402.406	525
402.63	519
402.854	532
403.078	522
403.302	550
403.526	537
403.75	552
403.974	550
404.198	534
404.422	579
404.645	533
404.869	558
405.093	582
405.317	600
405.541	616
405.765	556
405.988	553
406.212	565
406.436	573
406.66	593
406.883	566
407.107	583
407.331	634
407.555	679
407.778	670
408.002	626
408.226	599
408.449	600
408.673	573
408.896	579
409.12	630
409.344	601
409.567	564
409.791	548
410.014	536
410.238	535
410.461	551
410.685	527
410.908	538
411.132	578
411.355	590
411.578	565
411.802	503
412.025	514
412.249	534
412.472	553
412.695	582
412.919	563
413.142	528
413.365	524
413.589	511
413.812	505
414.035	515
414.258	490
414.482	509
414.705	509
414.928	515
415.151	527
415.374	490
415.597	508
415.821	491
416.044	505
416.267	504
416.49	502
416.713	491
416.936	505
417.159	489
417.382	503
417.605	514
417.828	528
418.051	499
418.274	520
418.497	505
418.72	514
418.943	501
419.166	540
419.389	574
419.611	538
419.834	530
420.057	524
420.28	524
420.503	516
420.726	536
420.948	537
421.171	548
421.394	555
421.617	523
421.839	519
422.062	550
422.285	518
422.507	550
422.73	624
422.953	610
423.175	553
423.398	544
423.621	531
423.843	553
424.066	569
424.288	536
424.511	532
424.733	589
424.956	638
425.178	609
425.401	604
425.623	640
425.846	556
426.068	534
426.291	524
426.513	522
426.735	531
426.958	568
427.18	615
427.402	722
427.625	759
427.847	666
428.069	607
428.292	543
428.514	531
428.736	490
428.958	499
429.181	492
429.403	474
429.625	499
429.847	505
430.069	552
430.292	530
430.514	489
430.736	479
430.958	471
431.18	481
431.402	445
431.624	481
431.846	478
432.068	473
432.29	482
432.512	451
432.734	473
432.956	481
433.178	486
433.4	470
433.622	461
433.844	495
434.066	481
434.287	476
434.509	498
434.731	535
434.953	516
435.175	526
435.397	528
435.618	529
435.84	536
436.062	603
436.284	669
436.505	568
436.727	516
436.949	500
437.17	491
437.392	489
437.614	515
437.835	510
438.057	574
438.278	640
438.5	646
438.721	698
438.943	670
439.165	550
439.386	522
439.608	521
439.829	495
440.05	527
440.272	547
440.493	532
440.715	503
440.936	495
441.158	514
441.379	524
441.6	500
441.822	525
442.043	554
442.264	619
442.486	632
442.707	574
442.928	539
443.149	536
443.371	570
443.592	586
443.813	657
444.034	695
444.255	622
444.476	568
444.698	570
444.919	558
445.14	652
445.361	599
445.582	553
445.803	600
446.024	654
446.245	654
446.466	602
446.687	552
446.908	514
447.129	490
447.35	491
447.571	490
447.792	466
448.013	486
448.234	500
448.455	509
448.675	592
448.896	655
449.117	572
449.338	538
449.559	638
449.779	735
450	584
450.221	479
450.442	487
450.662	446
450.883	463
451.104	458
451.324	470
451.545	444
451.766	436
451.986	407
452.207	450
452.428	399
452.648	451
452.869	427
453.089	431
453.31	431
453.53	421
453.751	438
453.971	442
454.192	426
454.412	391
454.633	427
454.853	435
455.073	413
455.294	441
455.514	477
455.734	477
455.955	424
456.175	429
456.395	421
456.616	406
456.836	413
457.056	423
457.276	396
457.497	425
457.717	418
457.937	414
458.157	431
458.377	429
458.598	432
458.818	468
459.038	540
459.258	542
459.478	493
459.698	492
459.918	484
460.138	503
460.358	491
460.578	516
460.798	513
461.018	518
461.238	525
461.458	511
461.678	517
461.898	523
462.118	527
462.338	507
462.558	551
462.777	527
462.997	573
463.217	590
463.437	607
463.657	586
463.876	563
464.096	552
464.316	566
464.536	558
464.755	553
464.975	554
465.195	549
465.414	541
465.634	499
465.854	475
466.073	455
466.293	463
466.512	460
466.732	478
466.951	461
467.171	437
467.391	465
467.61	476
467.829	446
468.049	440
468.268	445
468.488	443
468.707	438
468.927	462
469.146	444
469.365	451
469.585	441
469.804	479
470.023	455
470.243	443
470.462	460
470.681	474
470.901	465
471.12	443
471.339	474
471.558	454
471.777	464
471.997	458
472.216	437
472.435	467
472.654	439
472.873	445
473.092	452
473.311	444
473.53	431
473.749	441
473.968	468
474.187	524
474.406	550
474.625	500
474.844	442
475.063	441
475.282	450
475.501	458
475.72	478
475.939	433
476.158	444
476.377	473
476.596	480
476.814	469
477.033	463
477.252	498
477.471	500
477.69	492
477.908	490
478.127	518
478.346	490
478.564	528
478.783	507
479.002	548
479.22	536
479.439	549
479.658	540
479.876	532
480.095	533
480.313	560
480.532	578
480.751	552
480.969	568
481.188	566
481.406	560
481.624	542
481.843	549
482.061	532
482.28	511
482.498	538
482.717	530
482.935	537
483.153	540
483.372	537
483.59	516
483.808	519
484.027	532
484.245	524
484.463	524
484.681	494
484.9	519
485.118	519
485.336	526
485.554	526
485.772	519
485.99	532
486.209	570
486.427	520
486.645	575
486.863	563
487.081	559
487.299	574
487.517	578
487.735	565
487.953	578
488.171	541
488.389	558
488.607	553
488.825	557
489.043	532
489.261	563
489.479	565
489.696	554
489.914	559
490.132	563
490.35	572
490.568	570
490.786	586
491.003	591
491.221	588
491.439	619
491.657	613
491.874	613
492.092	611
492.31	599
492.527	613
492.745	620
492.963	642
493.18	629
493.398	620
493.615	642
493.833	604
494.05	626
494.268	612
494.485	652
494.703	628
494.92	630
495.138	638
495.355	664
495.573	644
495.79	643
496.008	638
496.225	653
496.442	652
496.66	648
496.877	664
497.094	666
497.312	684
497.529	676
497.746	694
497.963	703
498.181	735
498.398	754
498.615	766
498.832	755
499.049	835
499.267	843
499.484	906
499.701	966
499.918	1001
500.135	1092
500.352	1139
500.569	1169
500.786	1150
501.003	1156
501.22	1033
501.437	1020
501.654	954
501.871	919
502.088	875
502.305	838
502.522	782
502.739	759
502.956	754
503.172	727
503.389	670
503.606	703
503.823	688
504.04	682
504.256	657
504.473	708
504.69	668
504.907	676
505.123	653
505.34	634
505.557	624
505.773	620
505.99	605
506.207	589
506.423	605
506.64	596
506.856	591
507.073	591
507.289	596
507.506	589
507.722	575
507.939	594
508.155	559
508.372	562
508.588	565
508.805	531
509.021	548
509.238	581
509.454	559
509.67	570
509.887	562
510.103	550
510.319	554
510.536	579
510.752	739
510.968	656
511.184	558
511.401	544
511.617	512
511.833	524
512.049	516
512.265	543
512.481	551
512.698	526
512.914	523
513.13	532
513.346	518
513.562	500
513.778	540
513.994	538
514.21	507
514.426	533
514.642	556
514.858	563
515.074	569
515.29	628
515.506	744
515.721	668
515.937	587
516.153	564
516.369	570
516.585	556
516.801	578
517.016	588
517.232	600
517.448	610
517.664	615
517.879	613
518.095	608
518.311	611
518.527	592
518.742	606
518.958	596
519.173	561
519.389	551
519.605	574
519.82	534
520.036	552
520.251	552
520.467	540
520.682	554
520.898	564
521.113	564
521.329	581
521.544	594
521.76	660
521.975	879
522.19	847
522.406	603
522.621	526
522.836	508
523.052	500
523.267	487
523.482	483
523.698	479
523.913	473
524.128	480
524.343	480
524.559	467
524.774	478
524.989	466
525.204	494
525.419	450
525.634	478
525.849	462
526.064	466
526.28	460
526.495	451
526.71	474
526.925	460
527.14	462
527.355	440
527.57	442
527.785	457
527.999	458
528.214	454
528.429	441
528.644	464
528.859	452
529.074	455
529.289	458
529.503	499
529.718	462
529.933	480
530.148	442
530.363	436
530.577	446
530.792	455
531.007	468
531.221	462
531.436	450
531.651	468
531.865	454
532.08	438
532.295	447
532.509	438
532.724	444
532.938	441
533.153	443
533.367	459
533.582	451
533.796	451
534.011	438
534.225	427
534.44	436
534.654	422
534.868	443
535.083	448
535.297	442
535.511	423
535.726	438
535.94	429
536.154	457
536.369	440
536.583	422
536.797	432
537.011	445
537.225	424
537.44	418
537.654	447
537.868	423
538.082	434
538.296	450
538.51	438
538.724	445
538.938	421
539.153	431
539.367	426
539.581	426
539.795	416
540.009	443
540.222	420
540.436	420
540.65	429
540.864	426
541.078	431
541.292	424
541.506	421
541.72	415
541.934	418
542.147	452
542.361	428
542.575	407
542.789	415
543.002	407
543.216	425
543.43	431
543.644	413
543.857	441
544.071	409
544.285	437
544.498	438
544.712	427
544.925	438
545.139	429
545.352	422
545.566	426
545.779	434
545.993	443
546.206	435
546.42	430
546.633	433
546.847	431
547.06	419
547.274	430
547.487	413
547.7	410
547.914	434
548.127	426
548.34	439
548.554	420
548.767	425
548.98	432
549.193	418
549.407	415
549.62	428
549.833	441
550.046	432
550.259	418
550.473	428
550.686	428
550.899	423
551.112	420
551.325	427
551.538	426
551.751	422
551.964	428
552.177	428
552.39	432
552.603	438
552.816	440
553.029	431
553.242	459
553.455	440
553.667	448
553.88	450
554.093	447
554.306	414
554.519	458
554.732	437
554.944	443
555.157	412
555.37	420
555.583	405
555.795	425
556.008	390
556.221	388
556.433	398
556.646	410
556.859	392
557.071	390
557.284	381
557.496	376
557.709	384
557.921	389
558.134	379
558.346	390
558.559	388
558.771	379
558.984	366
559.196	366
559.409	372
559.621	382
559.833	373
560.046	377
560.258	387
560.47	400
560.683	366
560.895	403
561.107	357
561.32	368
561.532	389
561.744	404
561.956	376
562.168	363
562.381	384
562.593	373
562.805	383
563.017	394
563.229	390
563.441	383
563.653	379
563.865	381
564.077	381
564.289	405
564.501	390
564.713	392
564.925	401
565.137	416
565.349	418
565.561	411
565.773	454
565.985	437
566.197	449
566.408	462
566.62	498
566.832	518
567.044	537
567.255	524
567.467	526
567.679	550
567.891	570
568.102	582
568.314	561
568.526	523
568.737	509
568.949	469
569.161	454
569.372	431
569.584	419
569.795	423
570.007	415
570.218	433
570.43	414
570.641	395
570.853	374
571.064	416
571.276	399
571.487	378
571.698	397
571.91	374
572.121	352
572.333	376
572.544	346
572.755	346
572.966	335
573.178	344
573.389	348
573.6	336
573.811	342
574.023	336
574.234	340
574.445	331
574.656	336
574.867	321
575.078	325
575.289	355
575.501	345
575.712	329
575.923	336
576.134	326
576.345	322
576.556	321
576.767	316
576.978	321
577.188	336
577.399	325
577.61	316
577.821	330
578.032	303
578.243	322
578.454	379
578.665	346
578.875	318
579.086	312
579.297	310
579.508	324
579.718	301
579.929	300
580.14	298
580.35	315
580.561	315
580.772	297
580.982	303
581.193	307
581.403	318
581.614	314
581.825	293
582.035	301
582.246	310
582.456	307
582.667	310
582.877	307
583.087	279
583.298	299
583.508	310
583.719	310
583.929	291
584.139	282
584.35	299
584.56	299
584.77	306
584.981	289
585.191	309
585.401	274
585.611	304
585.821	293
586.032	294
586.242	300
586.452	292
586.662	277
586.872	290
587.082	316
587.292	314
587.502	302
587.713	285
587.923	298
588.133	282
588.343	298
588.553	285
588.762	314
588.972	300
589.182	299
589.392	298
589.602	310
589.812	294
590.022	301
590.232	299
590.441	295
590.651	302
590.861	311
591.071	293
591.281	312
591.49	300
591.7	301
591.91	303
592.119	310
592.329	336
592.539	322
592.748	314
592.958	326
593.167	318
593.377	337
593.587	359
593.796	326
594.006	347
594.215	344
594.424	342
594.634	336
594.843	333
595.053	323
595.262	327
595.472	333
595.681	323
595.89	305
596.1	310
596.309	296
596.518	279
596.727	299
596.937	287
597.146	278
597.355	283
597.564	277
597.774	285
597.983	270
598.192	266
598.401	255
598.61	286
598.819	254
599.028	261
599.237	278
599.446	275
599.655	261
599.864	260
600.073	266
600.282	282
600.491	262
600.7	262
600.909	255
601.118	262
601.327	260
601.536	271
601.745	249
601.953	272
602.162	259
602.371	237
602.58	260
602.789	262
602.997	264
603.206	262
603.415	257
603.623	260
603.832	242
604.041	242
604.249	259
604.458	263
604.666	251
604.875	249
605.084	251
605.292	258
605.501	256
605.709	231
605.918	236
606.126	256
606.334	239
606.543	252
606.751	240
606.96	253
607.168	242
607.376	251
607.585	243
607.793	243
608.001	264
608.21	222
608.418	237
608.626	236
608.834	250
609.043	251
609.251	253
609.459	251
609.667	237
609.875	245
610.083	251
610.291	253
610.499	236
610.707	245
610.916	237
611.124	242
611.332	260
611.54	240
611.748	238
611.955	241
612.163	256
612.371	234
612.579	230
612.787	249
612.995	238
613.203	246
613.411	253
613.618	253
613.826	253
614.034	245
614.242	222
614.449	248
614.657	232
614.865	220
615.072	232
615.28	255
615.488	262
615.695	245
615.903	260
616.111	227
616.318	254
616.526	230
616.733	246
616.941	234
617.148	266
617.356	239
617.563	229
617.771	247
617.978	231
618.185	242
618.393	228
618.6	224
618.807	224
619.015	242
619.222	239
619.429	242
619.637	237
619.844	231
620.051	229
620.258	231
620.466	229
620.673	218
620.88	227
621.087	212
621.294	232
621.501	220
621.708	215
621.915	219
622.122	236
622.329	219
622.536	237
622.743	227
622.95	232
623.157	216
623.364	204
623.571	223
623.778	212
623.985	225
624.192	212
624.399	228
624.606	233
624.812	203
625.019	205
625.226	215
625.433	217
625.639	207
625.846	211
626.053	223
626.259	222
626.466	219
626.673	215
626.879	210
627.086	213
627.293	196
627.499	209
627.706	203
627.912	211
628.119	202
628.325	210
628.532	187
628.738	218
628.945	187
629.151	202
629.357	198
629.564	199
629.77	209
629.976	197
630.183	201
630.389	207
630.595	201
630.802	201
631.008	205
631.214	198
631.42	196
631.627	208
631.833	200
632.039	198
632.245	207
632.451	205
632.657	205
632.863	190
633.069	188
633.275	185
633.481	191
633.688	184
633.893	210
634.099	210
634.305	185
634.511	194
634.717	185
634.923	201
635.129	201
635.335	179
635.541	180
635.747	190
635.952	187
636.158	175
636.364	181
636.57	199
636.775	180
636.981	180
637.187	189
637.392	174
637.598	168
637.804	178
638.009	180
638.215	181
638.421	186
638.626	199
638.832	182
639.037	171
639.243	170
639.448	184
639.654	173
639.859	173
640.065	190
640.27	184
640.475	173
640.681	176
640.886	169
641.091	183
641.297	183
641.502	170
641.707	168
641.913	187
642.118	178
642.323	180
642.528	182
642.733	173
642.939	188
643.144	175
643.349	164
643.554	167
643.759	171
643.964	173
644.169	175
644.374	171
644.579	161
644.784	186
644.989	193
645.194	172
645.399	171
645.604	162
645.809	176
646.014	169
646.219	168
646.423	176
646.628	167
646.833	190
647.038	174
647.243	185
647.447	172
647.652	182
647.857	157
648.062	174
648.266	170
648.471	181
648.676	160
648.88	175
649.085	174
649.289	178
649.494	181
649.698	184
649.903	189
650.107	178
650.312	182
650.516	162
650.721	167
650.925	157
651.13	176
651.334	150
651.539	162
651.743	158
651.947	171
652.152	140
652.356	156
652.56	153
652.764	144
652.969	138
653.173	131
653.377	142
653.581	147
653.785	151
653.99	155
654.194	141
654.398	137
654.602	141
654.806	151
655.01	156
655.214	152
655.418	145
655.622	138
655.826	142
656.03	148
656.234	161
656.438	154
656.642	143
656.846	142
657.049	137
657.253	150
657.457	144
657.661	123
657.865	125
658.068	119
658.272	107
658.476	101
658.68	108
658.883	102
659.087	95
659.291	100
659.494	98
659.698	92
659.901	97
660.105	99
660.309	100
660.512	102
660.716	93
660.919	97
661.123	110
661.326	90
661.53	61
661.733	83
661.936	91
662.14	100
662.343	89
662.546	79
662.75	75
662.953	109
663.156	86
663.36	75
663.563	94
663.766	93
663.969	87
664.173	91
664.376	103
664.579	72
664.782	98
664.985	91
665.188	96
665.391	92
665.594	78
665.797	61
666	74
666.203	69
666.406	62
666.609	90
666.812	93
667.015	87
667.218	89
667.421	89
667.624	86
667.827	88
668.03	79
668.232	82
668.435	78
668.638	93
668.841	95
669.043	94
669.246	83
669.449	78
669.651	86
669.854	78
670.057	76
670.259	88
670.462	80
670.665	84
670.867	98
671.07	75
671.272	79
671.475	78
671.677	87
671.88	98
672.082	81
672.284	75
672.487	74
672.689	87
672.892	88
