Data from 1974.PennyLincolnUp.Lamp.En5.5.200Scan.071719.P1.Changed Mount._HRD10591_15-52-57-857.txt Node
Date: Thu Jul 18 15:52:57 EDT 2019
User: cochatt
Spectrometer: HR+D1059
Trigger mode: 1
Integration Time (sec): 1.000000E-1
Scans to average: 1
Electric dark correction enabled: true
Nonlinearity correction enabled: false
Boxcar width: 0
XAxis mode: Wavelengths
Number of Pixels in Spectrum: 2048
>>>>>Begin Spectral Data<<<<<
223.165	-16
223.4	-16
223.635	-16
223.869	-6
224.104	-24
224.338	-22
224.573	-14
224.808	-13
225.042	-3
225.277	-1
225.511	-27
225.746	8
225.98	11
226.215	11
226.449	10
226.683	19
226.918	31
227.152	36
227.387	34
227.621	37
227.856	43
228.09	36
228.324	45
228.559	62
228.793	66
229.027	100
229.262	99
229.496	115
229.73	128
229.964	145
230.199	118
230.433	116
230.667	115
230.901	110
231.136	106
231.37	110
231.604	117
231.838	120
232.072	118
232.306	105
232.541	109
232.775	123
233.009	115
233.243	122
233.477	113
233.711	96
233.945	117
234.179	127
234.413	125
234.647	113
234.881	124
235.115	127
235.349	118
235.583	109
235.817	121
236.051	145
236.285	130
236.519	133
236.753	133
236.987	144
237.221	183
237.455	221
237.689	179
237.922	137
238.156	123
238.39	136
238.624	152
238.858	135
239.091	132
239.325	131
239.559	130
239.793	133
240.027	141
240.26	134
240.494	145
240.728	155
240.961	144
241.195	156
241.429	147
241.662	139
241.896	133
242.13	132
242.363	130
242.597	131
242.83	146
243.064	142
243.298	136
243.531	140
243.765	154
243.998	140
244.232	147
244.465	152
244.699	138
244.932	156
245.166	154
245.399	152
245.633	132
245.866	147
246.099	145
246.333	169
246.566	171
246.8	164
247.033	159
247.266	176
247.5	166
247.733	182
247.966	177
248.2	179
248.433	177
248.666	187
248.899	190
249.133	199
249.366	198
249.599	194
249.832	185
250.066	161
250.299	185
250.532	193
250.765	197
250.998	214
251.231	224
251.465	227
251.698	226
251.931	208
252.164	199
252.397	196
252.63	211
252.863	210
253.096	215
253.329	215
253.562	241
253.795	232
254.028	213
254.261	223
254.494	229
254.727	245
254.96	287
255.193	257
255.426	249
255.659	246
255.892	225
256.124	236
256.357	236
256.59	226
256.823	223
257.056	218
257.289	215
257.521	226
257.754	215
257.987	217
258.22	217
258.452	217
258.685	220
258.918	213
259.151	199
259.383	229
259.616	223
259.849	246
260.081	239
260.314	236
260.547	275
260.779	235
261.012	245
261.244	233
261.477	239
261.71	217
261.942	225
262.175	243
262.407	230
262.64	235
262.872	233
263.105	231
263.337	223
263.57	230
263.802	213
264.035	216
264.267	244
264.499	212
264.732	234
264.964	208
265.197	211
265.429	227
265.661	227
265.894	229
266.126	216
266.358	224
266.591	220
266.823	236
267.055	221
267.287	241
267.52	235
267.752	243
267.984	241
268.216	244
268.448	257
268.681	254
268.913	258
269.145	267
269.377	292
269.609	279
269.841	269
270.073	269
270.306	299
270.538	316
270.77	305
271.002	304
271.234	308
271.466	285
271.698	307
271.93	319
272.162	344
272.394	333
272.626	320
272.858	303
273.09	276
273.322	285
273.553	262
273.785	290
274.017	269
274.249	276
274.481	288
274.713	289
274.945	276
275.176	275
275.408	285
275.64	275
275.872	266
276.104	270
276.335	268
276.567	288
276.799	278
277.031	320
277.262	324
277.494	333
277.726	299
277.957	288
278.189	283
278.421	277
278.652	311
278.884	271
279.115	269
279.347	273
279.579	284
279.81	263
280.042	281
280.273	289
280.505	289
280.736	289
280.968	264
281.199	288
281.431	270
281.662	289
281.894	281
282.125	267
282.356	309
282.588	316
282.819	296
283.051	298
283.282	289
283.513	313
283.745	289
283.976	291
284.207	302
284.439	291
284.67	298
284.901	298
285.132	317
285.364	290
285.595	294
285.826	309
286.057	312
286.288	308
286.52	301
286.751	292
286.982	280
287.213	277
287.444	299
287.675	295
287.906	312
288.138	331
288.369	304
288.6	323
288.831	312
289.062	309
289.293	302
289.524	309
289.755	291
289.986	299
290.217	306
290.448	312
290.679	304
290.91	307
291.141	300
291.371	302
291.602	308
291.833	298
292.064	309
292.295	306
292.526	294
292.757	307
292.987	300
293.218	296
293.449	311
293.68	317
293.91	314
294.141	307
294.372	289
294.603	310
294.833	319
295.064	335
295.295	297
295.525	324
295.756	305
295.987	322
296.217	331
296.448	365
296.679	325
296.909	319
297.14	312
297.37	317
297.601	319
297.831	297
298.062	338
298.292	325
298.523	312
298.753	309
298.984	328
299.214	343
299.445	326
299.675	335
299.905	338
300.136	337
300.366	337
300.597	320
300.827	332
301.057	342
301.288	344
301.518	320
301.748	344
301.979	345
302.209	330
302.439	360
302.669	353
302.9	353
303.13	356
303.36	377
303.59	356
303.82	343
304.051	351
304.281	359
304.511	342
304.741	371
304.971	361
305.201	353
305.431	348
305.661	368
305.891	356
306.121	362
306.352	346
306.582	354
306.812	346
307.042	353
307.272	334
307.502	367
307.731	357
307.961	351
308.191	354
308.421	353
308.651	371
308.881	351
309.111	353
309.341	352
309.571	352
309.8	390
310.03	359
310.26	394
310.49	357
310.72	389
310.949	389
311.179	389
311.409	384
311.639	387
311.868	383
312.098	388
312.328	390
312.557	386
312.787	419
313.017	440
313.246	389
313.476	379
313.706	402
313.935	393
314.165	407
314.394	417
314.624	420
314.853	395
315.083	369
315.312	382
315.542	387
315.771	366
316.001	381
316.23	381
316.46	398
316.689	387
316.919	397
317.148	396
317.377	394
317.607	409
317.836	378
318.065	369
318.295	389
318.524	373
318.753	391
318.983	390
319.212	384
319.441	389
319.67	407
319.9	401
320.129	396
320.358	401
320.587	403
320.816	396
321.046	408
321.275	394
321.504	407
321.733	412
321.962	396
322.191	433
322.42	440
322.649	423
322.878	451
323.108	436
323.337	487
323.566	487
323.795	515
324.024	529
324.253	596
324.482	851
324.71	1283
324.939	1841
325.168	1609
325.397	892
325.626	594
325.855	529
326.084	497
326.313	488
326.542	499
326.77	536
326.999	602
327.228	777
327.457	1147
327.686	1438
327.914	991
328.143	641
328.372	593
328.6	573
328.829	554
329.058	553
329.287	563
329.515	535
329.744	514
329.972	519
330.201	521
330.43	543
330.658	556
330.887	583
331.115	561
331.344	509
331.572	480
331.801	500
332.03	490
332.258	496
332.486	489
332.715	475
332.943	468
333.172	467
333.4	487
333.629	481
333.857	510
334.085	511
334.314	498
334.542	537
334.771	545
334.999	534
335.227	501
335.455	487
335.684	495
335.912	481
336.14	483
336.369	465
336.597	460
336.825	489
337.053	479
337.281	448
337.51	468
337.738	475
337.966	474
338.194	465
338.422	475
338.65	452
338.878	480
339.106	466
339.334	461
339.562	477
339.79	457
340.018	465
340.246	461
340.474	453
340.702	462
340.93	447
341.158	455
341.386	447
341.614	446
341.842	455
342.07	457
342.298	446
342.526	428
342.754	452
342.981	472
343.209	442
343.437	437
343.665	443
343.893	479
344.12	478
344.348	498
344.576	486
344.804	480
345.031	462
345.259	486
345.487	479
345.714	470
345.942	469
346.17	449
346.397	441
346.625	448
346.853	448
347.08	454
347.308	453
347.535	455
347.763	447
347.99	452
348.218	457
348.445	451
348.673	442
348.9	435
349.128	433
349.355	424
349.583	433
349.81	430
350.037	422
350.265	445
350.492	401
350.72	441
350.947	451
351.174	447
351.402	436
351.629	429
351.856	449
352.083	441
352.311	426
352.538	441
352.765	443
352.992	424
353.22	457
353.447	436
353.674	443
353.901	417
354.128	400
354.355	417
354.583	412
354.81	445
355.037	427
355.264	410
355.491	407
355.718	417
355.945	403
356.172	405
356.399	407
356.626	417
356.853	421
357.08	412
357.307	424
357.534	434
357.761	425
357.988	426
358.215	420
358.441	419
358.668	428
358.895	417
359.122	426
359.349	440
359.576	452
359.802	460
360.029	471
360.256	472
360.483	471
360.709	465
360.936	442
361.163	441
361.39	461
361.616	456
361.843	446
362.07	440
362.296	439
362.523	433
362.749	437
362.976	438
363.203	439
363.429	437
363.656	420
363.882	436
364.109	425
364.335	428
364.562	417
364.788	433
365.015	414
365.241	418
365.468	438
365.694	432
365.92	435
366.147	442
366.373	433
366.599	415
366.826	409
367.052	410
367.278	428
367.505	418
367.731	441
367.957	431
368.184	455
368.41	443
368.636	447
368.862	457
369.089	436
369.315	423
369.541	413
369.767	444
369.993	431
370.219	431
370.445	435
370.672	423
370.898	426
371.124	422
371.35	437
371.576	423
371.802	421
372.028	433
372.254	432
372.48	445
372.706	424
372.932	412
373.158	442
373.384	433
373.61	448
373.835	462
374.061	440
374.287	441
374.513	460
374.739	434
374.965	446
375.191	469
375.416	454
375.642	466
375.868	459
376.094	436
376.319	436
376.545	426
376.771	450
376.997	446
377.222	428
377.448	444
377.674	433
377.899	433
378.125	440
378.35	427
378.576	437
378.802	433
379.027	438
379.253	456
379.478	451
379.704	448
379.929	421
380.155	432
380.38	430
380.606	432
380.831	427
381.057	444
381.282	431
381.507	437
381.733	435
381.958	458
382.184	447
382.409	431
382.634	447
382.86	479
383.085	471
383.31	483
383.535	459
383.761	470
383.986	447
384.211	469
384.436	450
384.662	479
384.887	502
385.112	458
385.337	479
385.562	480
385.787	481
386.013	496
386.238	490
386.463	467
386.688	507
386.913	477
387.138	490
387.363	497
387.588	495
387.813	459
388.038	495
388.263	484
388.488	504
388.713	464
388.938	468
389.163	490
389.387	492
389.612	486
389.837	469
390.062	469
390.287	489
390.512	508
390.736	496
390.961	490
391.186	485
391.411	498
391.636	505
391.86	533
392.085	508
392.31	497
392.534	533
392.759	514
392.984	499
393.208	492
393.433	498
393.658	487
393.882	487
394.107	485
394.331	499
394.556	503
394.78	523
395.005	517
395.229	518
395.454	519
395.678	487
395.903	539
396.127	559
396.352	539
396.576	527
396.801	511
397.025	500
397.249	523
397.474	535
397.698	534
397.922	553
398.147	568
398.371	567
398.595	550
398.82	576
399.044	583
399.268	610
399.492	666
399.717	680
399.941	700
400.165	713
400.389	698
400.613	643
400.837	624
401.062	597
401.286	590
401.51	607
401.734	572
401.958	561
402.182	577
402.406	569
402.63	593
402.854	600
403.078	594
403.302	612
403.526	596
403.75	606
403.974	610
404.198	592
404.422	598
404.645	588
404.869	592
405.093	611
405.317	666
405.541	698
405.765	655
405.988	635
406.212	644
406.436	617
406.66	661
406.883	650
407.107	694
407.331	724
407.555	792
407.778	782
408.002	715
408.226	659
408.449	667
408.673	660
408.896	679
409.12	719
409.344	697
409.567	641
409.791	634
410.014	620
410.238	626
410.461	607
410.685	603
410.908	611
411.132	653
411.355	673
411.578	645
411.802	616
412.025	602
412.249	623
412.472	603
412.695	660
412.919	651
413.142	621
413.365	608
413.589	603
413.812	582
414.035	575
414.258	568
414.482	571
414.705	562
414.928	556
415.151	573
415.374	561
415.597	572
415.821	551
416.044	567
416.267	563
416.49	563
416.713	566
416.936	574
417.159	564
417.382	548
417.605	590
417.828	572
418.051	569
418.274	586
418.497	578
418.72	560
418.943	573
419.166	601
419.389	641
419.611	619
419.834	604
420.057	619
420.28	615
420.503	616
420.726	609
420.948	597
421.171	637
421.394	667
421.617	616
421.839	567
422.062	613
422.285	615
422.507	653
422.73	757
422.953	704
423.175	653
423.398	626
423.621	623
423.843	637
424.066	634
424.288	636
424.511	664
424.733	716
424.956	793
425.178	751
425.401	744
425.623	783
425.846	665
426.068	623
426.291	627
426.513	593
426.735	612
426.958	665
427.18	744
427.402	876
427.625	938
427.847	813
428.069	735
428.292	673
428.514	596
428.736	610
428.958	592
429.181	574
429.403	559
429.625	569
429.847	620
430.069	684
430.292	667
430.514	602
430.736	573
430.958	572
431.18	552
431.402	553
431.624	537
431.846	555
432.068	563
432.29	545
432.512	522
432.734	555
432.956	554
433.178	567
433.4	567
433.622	566
433.844	542
434.066	537
434.287	565
434.509	583
434.731	583
434.953	589
435.175	600
435.397	611
435.618	611
435.84	671
436.062	716
436.284	807
436.505	698
436.727	643
436.949	573
437.17	575
437.392	585
437.614	579
437.835	597
438.057	684
438.278	787
438.5	775
438.721	895
438.943	843
439.165	689
439.386	632
439.608	597
439.829	595
440.05	661
440.272	699
440.493	638
440.715	611
440.936	602
441.158	580
441.379	563
441.6	629
441.822	623
442.043	655
442.264	754
442.486	801
442.707	675
442.928	639
443.149	670
443.371	657
443.592	687
443.813	790
444.034	869
444.255	725
444.476	667
444.698	643
444.919	660
445.14	751
445.361	706
445.582	671
445.803	708
446.024	824
446.245	817
446.466	768
446.687	633
446.908	642
447.129	587
447.35	585
447.571	582
447.792	560
448.013	582
448.234	586
448.455	632
448.675	735
448.896	868
449.117	735
449.338	684
449.559	791
449.779	916
450	719
450.221	620
450.442	570
450.662	560
450.883	562
451.104	578
451.324	580
451.545	534
451.766	526
451.986	524
452.207	490
452.428	499
452.648	486
452.869	525
453.089	519
453.31	535
453.53	504
453.751	523
453.971	517
454.192	511
454.412	506
454.633	503
454.853	517
455.073	532
455.294	532
455.514	593
455.734	584
455.955	516
456.175	493
456.395	478
456.616	470
456.836	488
457.056	486
457.276	478
457.497	486
457.717	481
457.937	490
458.157	513
458.377	501
458.598	507
458.818	560
459.038	652
459.258	659
459.478	600
459.698	579
459.918	567
460.138	541
460.358	567
460.578	579
460.798	575
461.018	595
461.238	579
461.458	562
461.678	574
461.898	573
462.118	600
462.338	579
462.558	597
462.777	595
462.997	616
463.217	642
463.437	656
463.657	649
463.876	639
464.096	634
464.316	612
464.536	625
464.755	601
464.975	628
465.195	641
465.414	671
465.634	636
465.854	601
466.073	575
466.293	558
466.512	530
466.732	547
466.951	530
467.171	515
467.391	543
467.61	533
467.829	523
468.049	543
468.268	553
468.488	519
468.707	489
468.927	513
469.146	522
469.365	518
469.585	500
469.804	539
470.023	556
470.243	522
470.462	554
470.681	554
470.901	574
471.12	540
471.339	533
471.558	527
471.777	554
471.997	535
472.216	567
472.435	564
472.654	559
472.873	541
473.092	527
473.311	531
473.53	527
473.749	537
473.968	596
474.187	679
474.406	703
474.625	601
474.844	569
475.063	546
475.282	533
475.501	543
475.72	550
475.939	545
476.158	550
476.377	572
476.596	540
476.814	550
477.033	545
477.252	559
477.471	564
477.69	577
477.908	592
478.127	617
478.346	599
478.564	613
478.783	603
479.002	623
479.22	620
479.439	641
479.658	653
479.876	642
480.095	652
480.313	688
480.532	691
480.751	664
480.969	667
481.188	709
481.406	717
481.624	675
481.843	647
482.061	651
482.28	633
482.498	628
482.717	629
482.935	633
483.153	609
483.372	633
483.59	635
483.808	637
484.027	640
484.245	630
484.463	623
484.681	641
484.9	643
485.118	656
485.336	641
485.554	639
485.772	661
485.99	657
486.209	649
486.427	657
486.645	671
486.863	659
487.081	664
487.299	665
487.517	653
487.735	678
487.953	685
488.171	660
488.389	666
488.607	671
488.825	659
489.043	679
489.261	691
489.479	674
489.696	685
489.914	694
490.132	677
490.35	713
490.568	710
490.786	710
491.003	718
491.221	747
491.439	757
491.657	772
491.874	771
492.092	796
492.31	793
492.527	792
492.745	796
492.963	782
493.18	793
493.398	801
493.615	795
493.833	803
494.05	831
494.268	817
494.485	796
494.703	785
494.92	767
495.138	792
495.355	796
495.573	801
495.79	789
496.008	820
496.225	797
496.442	816
496.66	802
496.877	809
497.094	847
497.312	828
497.529	816
497.746	823
497.963	833
498.181	921
498.398	890
498.615	903
498.832	947
499.049	986
499.267	1000
499.484	1041
499.701	1098
499.918	1143
500.135	1183
500.352	1257
500.569	1267
500.786	1290
501.003	1247
501.22	1225
501.437	1151
501.654	1109
501.871	1094
502.088	1051
502.305	970
502.522	935
502.739	928
502.956	881
503.172	882
503.389	854
503.606	856
503.823	822
504.04	811
504.256	819
504.473	847
504.69	826
504.907	789
505.123	800
505.34	776
505.557	771
505.773	789
505.99	725
506.207	751
506.423	735
506.64	771
506.856	740
507.073	734
507.289	719
507.506	732
507.722	756
507.939	740
508.155	715
508.372	728
508.588	696
508.805	724
509.021	723
509.238	705
509.454	730
509.67	723
509.887	695
510.103	681
510.319	713
510.536	755
510.752	1141
510.968	967
511.184	699
511.401	682
511.617	678
511.833	663
512.049	669
512.265	645
512.481	651
512.698	668
512.914	666
513.13	650
513.346	658
513.562	640
513.778	669
513.994	648
514.21	680
514.426	693
514.642	736
514.858	752
515.074	759
515.29	857
515.506	1175
515.721	1009
515.937	780
516.153	721
516.369	703
516.585	702
516.801	702
517.016	712
517.232	705
517.448	728
517.664	732
517.879	741
518.095	733
518.311	712
518.527	684
518.742	670
518.958	681
519.173	672
519.389	690
519.605	656
519.82	660
520.036	678
520.251	681
520.467	712
520.682	693
520.898	718
521.113	711
521.329	769
521.544	820
521.76	945
521.975	1446
522.19	1455
522.406	895
522.621	699
522.836	658
523.052	634
523.267	624
523.482	616
523.698	617
523.913	618
524.128	565
524.343	581
524.559	595
524.774	553
524.989	581
525.204	593
525.419	561
525.634	571
525.849	584
526.064	542
526.28	566
526.495	580
526.71	556
526.925	535
527.14	536
527.355	541
527.57	551
527.785	519
527.999	540
528.214	546
528.429	546
528.644	566
528.859	561
529.074	562
529.289	589
529.503	619
529.718	600
529.933	561
530.148	571
530.363	555
530.577	552
530.792	559
531.007	547
531.221	543
531.436	539
531.651	547
531.865	553
532.08	532
532.295	549
532.509	531
532.724	526
532.938	516
533.153	546
533.367	522
533.582	536
533.796	540
534.011	531
534.225	531
534.44	532
534.654	515
534.868	527
535.083	527
535.297	511
535.511	511
535.726	536
535.94	519
536.154	529
536.369	531
536.583	531
536.797	507
537.011	475
537.225	486
537.44	498
537.654	519
537.868	498
538.082	505
538.296	510
538.51	509
538.724	508
538.938	517
539.153	511
539.367	523
539.581	505
539.795	500
540.009	512
540.222	498
540.436	517
540.65	500
540.864	494
541.078	521
541.292	535
541.506	512
541.72	494
541.934	506
542.147	522
542.361	509
542.575	520
542.789	506
543.002	517
543.216	515
543.43	512
543.644	512
543.857	499
544.071	519
544.285	520
544.498	500
544.712	505
544.925	517
545.139	508
545.352	537
545.566	513
545.779	495
545.993	495
546.206	508
546.42	515
546.633	519
546.847	499
547.06	493
547.274	500
547.487	490
547.7	501
547.914	503
548.127	502
548.34	488
548.554	488
548.767	485
548.98	472
549.193	514
549.407	523
549.62	508
549.833	493
550.046	477
550.259	498
550.473	509
550.686	510
550.899	495
551.112	503
551.325	484
551.538	471
551.751	482
551.964	486
552.177	477
552.39	484
552.603	515
552.816	519
553.029	517
553.242	542
553.455	522
553.667	516
553.88	529
554.093	527
554.306	509
554.519	500
554.732	502
554.944	484
555.157	503
555.37	485
555.583	464
555.795	467
556.008	441
556.221	440
556.433	455
556.646	439
556.859	460
557.071	449
557.284	457
557.496	464
557.709	461
557.921	441
558.134	451
558.346	446
558.559	435
558.771	442
558.984	439
559.196	452
559.409	436
559.621	452
559.833	430
560.046	447
560.258	416
560.47	425
560.683	434
560.895	426
561.107	458
561.32	444
561.532	448
561.744	454
561.956	445
562.168	436
562.381	426
562.593	440
562.805	445
563.017	426
563.229	440
563.441	448
563.653	427
563.865	458
564.077	425
564.289	465
564.501	457
564.713	476
564.925	462
565.137	478
565.349	489
565.561	510
565.773	487
565.985	524
566.197	524
566.408	522
566.62	543
566.832	565
567.044	586
567.255	574
567.467	577
567.679	597
567.891	611
568.102	611
568.314	584
568.526	579
568.737	546
568.949	526
569.161	507
569.372	491
569.584	483
569.795	449
570.007	457
570.218	489
570.43	493
570.641	441
570.853	432
571.064	428
571.276	425
571.487	428
571.698	409
571.91	406
572.121	423
572.333	391
572.544	404
572.755	389
572.966	379
573.178	352
573.389	385
573.6	383
573.811	374
574.023	387
574.234	367
574.445	385
574.656	369
574.867	371
575.078	372
575.289	382
575.501	376
575.712	373
575.923	374
576.134	369
576.345	392
576.556	376
576.767	372
576.978	355
577.188	358
577.399	351
577.61	362
577.821	365
578.032	361
578.243	383
578.454	539
578.665	421
578.875	370
579.086	347
579.297	360
579.508	354
579.718	347
579.929	373
580.14	347
580.35	340
580.561	355
580.772	348
580.982	337
581.193	329
581.403	339
581.614	343
581.825	341
582.035	348
582.246	348
582.456	324
582.667	350
582.877	345
583.087	358
583.298	318
583.508	331
583.719	334
583.929	343
584.139	342
584.35	339
584.56	344
584.77	339
584.981	333
585.191	329
585.401	335
585.611	312
585.821	313
586.032	332
586.242	336
586.452	309
586.662	341
586.872	332
587.082	317
587.292	324
587.502	331
587.713	316
587.923	339
588.133	331
588.343	320
588.553	307
588.762	313
588.972	320
589.182	341
589.392	317
589.602	348
589.812	316
590.022	305
590.232	335
590.441	321
590.651	333
590.861	323
591.071	330
591.281	323
591.49	326
591.7	312
591.91	338
592.119	321
592.329	353
592.539	333
592.748	351
592.958	352
593.167	364
593.377	357
593.587	373
593.796	364
594.006	357
594.215	371
594.424	379
594.634	385
594.843	371
595.053	334
595.262	332
595.472	343
595.681	329
595.89	314
596.1	327
596.309	305
596.518	315
596.727	341
596.937	321
597.146	303
597.355	309
597.564	300
597.774	299
597.983	284
598.192	320
598.401	285
598.61	307
598.819	301
599.028	309
599.237	275
599.446	296
599.655	312
599.864	295
600.073	305
600.282	275
600.491	273
600.7	295
600.909	299
601.118	300
601.327	289
601.536	298
601.745	286
601.953	307
602.162	305
602.371	287
602.58	283
602.789	293
602.997	285
603.206	283
603.415	276
603.623	291
603.832	279
604.041	260
604.249	275
604.458	240
604.666	271
604.875	275
605.084	263
605.292	265
605.501	274
605.709	284
605.918	281
606.126	278
606.334	268
606.543	280
606.751	264
606.96	268
607.168	267
607.376	286
607.585	276
607.793	270
608.001	279
608.21	273
608.418	275
608.626	251
608.834	272
609.043	287
609.251	285
609.459	266
609.667	275
609.875	269
610.083	271
610.291	273
610.499	275
610.707	277
610.916	279
611.124	263
611.332	269
611.54	271
611.748	275
611.955	270
612.163	272
612.371	272
612.579	239
612.787	255
612.995	275
613.203	270
613.411	270
613.618	271
613.826	261
614.034	282
614.242	251
614.449	253
614.657	263
614.865	269
615.072	275
615.28	263
615.488	272
615.695	266
615.903	250
616.111	263
616.318	267
616.526	263
616.733	271
616.941	262
617.148	264
617.356	266
617.563	249
617.771	265
617.978	256
618.185	251
618.393	245
618.6	259
618.807	247
619.015	262
619.222	263
619.429	277
619.637	253
619.844	257
620.051	265
620.258	235
620.466	236
620.673	228
620.88	235
621.087	224
621.294	259
621.501	236
621.708	236
621.915	263
622.122	242
622.329	228
622.536	264
622.743	243
622.95	255
623.157	237
623.364	225
623.571	237
623.778	237
623.985	247
624.192	221
624.399	256
624.606	232
624.812	240
625.019	231
625.226	230
625.433	237
625.639	247
625.846	219
626.053	234
626.259	235
626.466	229
626.673	212
626.879	221
627.086	210
627.293	228
627.499	256
627.706	211
627.912	224
628.119	228
628.325	217
628.532	243
628.738	227
628.945	225
629.151	223
629.357	227
629.564	227
629.77	221
629.976	221
630.183	217
630.389	231
630.595	223
630.802	224
631.008	201
631.214	223
631.42	209
631.627	200
631.833	214
632.039	213
632.245	219
632.451	210
632.657	200
632.863	205
633.069	191
633.275	201
633.481	194
633.688	187
633.893	192
634.099	196
634.305	214
634.511	204
634.717	213
634.923	204
635.129	182
635.335	200
635.541	191
635.747	200
635.952	196
636.158	197
636.364	188
636.57	189
636.775	200
636.981	203
637.187	204
637.392	194
637.598	197
637.804	200
638.009	190
638.215	189
638.421	197
638.626	200
638.832	188
639.037	194
639.243	183
639.448	167
639.654	177
639.859	171
640.065	185
640.27	191
640.475	196
640.681	180
640.886	171
641.091	199
641.297	180
641.502	181
641.707	178
641.913	192
642.118	188
642.323	168
642.528	193
642.733	193
642.939	197
643.144	187
643.349	183
643.554	177
643.759	177
643.964	179
644.169	180
644.374	195
644.579	168
644.784	178
644.989	175
645.194	182
645.399	187
645.604	182
645.809	172
646.014	170
646.219	175
646.423	181
646.628	170
646.833	179
647.038	175
647.243	182
647.447	185
647.652	179
647.857	182
648.062	186
648.266	171
648.471	194
648.676	179
648.88	195
649.085	176
649.289	181
649.494	190
649.698	185
649.903	190
650.107	173
650.312	185
650.516	164
650.721	159
650.925	161
651.13	153
651.334	163
651.539	169
651.743	141
651.947	165
652.152	157
652.356	135
652.56	152
652.764	153
652.969	145
653.173	141
653.377	147
653.581	146
653.785	136
653.99	132
654.194	150
654.398	145
654.602	156
654.806	137
655.01	159
655.214	146
655.418	147
655.622	149
655.826	138
656.03	139
656.234	144
656.438	159
656.642	138
656.846	150
657.049	141
657.253	124
657.457	121
657.661	119
657.865	121
658.068	116
658.272	125
658.476	123
658.68	84
658.883	97
659.087	100
659.291	106
659.494	91
659.698	95
659.901	94
660.105	95
660.309	91
660.512	89
660.716	101
660.919	91
661.123	90
661.326	81
661.53	99
661.733	90
661.936	96
662.14	91
662.343	75
662.546	88
662.75	86
662.953	97
663.156	81
663.36	78
663.563	71
663.766	82
663.969	91
664.173	79
664.376	82
664.579	83
664.782	69
664.985	71
665.188	82
665.391	68
665.594	89
665.797	83
666	74
666.203	80
666.406	74
666.609	86
666.812	81
667.015	71
667.218	95
667.421	85
667.624	69
667.827	92
668.03	72
668.232	74
668.435	71
668.638	83
668.841	81
669.043	80
669.246	91
669.449	73
669.651	73
669.854	75
670.057	72
670.259	87
670.462	69
670.665	77
670.867	85
671.07	87
671.272	77
671.475	81
671.677	70
671.88	77
672.082	84
672.284	75
672.487	87
672.689	81
672.892	87
