Data from 1977.PennyLincolnUp.Lamp.En5.5.200Scan.071719.P1_HRD10591_16-06-48-864.txt Node
Date: Thu Jul 18 16:06:48 EDT 2019
User: cochatt
Spectrometer: HR+D1059
Trigger mode: 1
Integration Time (sec): 1.000000E-1
Scans to average: 1
Electric dark correction enabled: true
Nonlinearity correction enabled: false
Boxcar width: 0
XAxis mode: Wavelengths
Number of Pixels in Spectrum: 2048
>>>>>Begin Spectral Data<<<<<
223.165	-24
223.4	-24
223.635	-24
223.869	-25
224.104	-10
224.338	-34
224.573	-9
224.808	-3
225.042	-1
225.277	-2
225.511	10
225.746	0
225.98	2
226.215	10
226.449	11
226.683	10
226.918	35
227.152	30
227.387	28
227.621	28
227.856	54
228.09	43
228.324	60
228.559	52
228.793	52
229.027	95
229.262	108
229.496	104
229.73	114
229.964	145
230.199	113
230.433	125
230.667	112
230.901	105
231.136	90
231.37	106
231.604	101
231.838	126
232.072	90
232.306	103
232.541	106
232.775	114
233.009	120
233.243	118
233.477	123
233.711	115
233.945	114
234.179	102
234.413	122
234.647	105
234.881	118
235.115	112
235.349	113
235.583	134
235.817	118
236.051	120
236.285	134
236.519	129
236.753	123
236.987	131
237.221	166
237.455	200
237.689	157
237.922	129
238.156	132
238.39	121
238.624	128
238.858	122
239.091	118
239.325	129
239.559	128
239.793	126
240.027	131
240.26	146
240.494	143
240.728	134
240.961	137
241.195	140
241.429	147
241.662	132
241.896	139
242.13	125
242.363	152
242.597	130
242.83	132
243.064	148
243.298	141
243.531	138
243.765	130
243.998	124
244.232	147
244.465	130
244.699	132
244.932	144
245.166	154
245.399	144
245.633	155
245.866	147
246.099	157
246.333	152
246.566	145
246.8	152
247.033	167
247.266	161
247.5	139
247.733	157
247.966	162
248.2	156
248.433	170
248.666	172
248.899	182
249.133	200
249.366	192
249.599	191
249.832	171
250.066	183
250.299	181
250.532	183
250.765	172
250.998	219
251.231	207
251.465	198
251.698	196
251.931	200
252.164	186
252.397	172
252.63	206
252.863	187
253.096	212
253.329	202
253.562	226
253.795	212
254.028	207
254.261	229
254.494	192
254.727	240
254.96	264
255.193	246
255.426	246
255.659	227
255.892	235
256.124	220
256.357	238
256.59	218
256.823	228
257.056	215
257.289	216
257.521	212
257.754	206
257.987	208
258.22	202
258.452	206
258.685	208
258.918	205
259.151	206
259.383	222
259.616	214
259.849	212
260.081	222
260.314	249
260.547	240
260.779	233
261.012	227
261.244	220
261.477	220
261.71	241
261.942	209
262.175	233
262.407	216
262.64	208
262.872	215
263.105	214
263.337	201
263.57	199
263.802	212
264.035	202
264.267	204
264.499	227
264.732	216
264.964	229
265.197	216
265.429	195
265.661	216
265.894	226
266.126	223
266.358	235
266.591	201
266.823	227
267.055	230
267.287	226
267.52	230
267.752	232
267.984	231
268.216	238
268.448	229
268.681	222
268.913	245
269.145	273
269.377	263
269.609	265
269.841	265
270.073	255
270.306	276
270.538	312
270.77	310
271.002	302
271.234	314
271.466	296
271.698	306
271.93	306
272.162	308
272.394	296
272.626	292
272.858	305
273.09	274
273.322	285
273.553	278
273.785	269
274.017	260
274.249	269
274.481	289
274.713	265
274.945	268
275.176	259
275.408	267
275.64	271
275.872	273
276.104	270
276.335	273
276.567	297
276.799	293
277.031	321
277.262	310
277.494	291
277.726	310
277.957	291
278.189	280
278.421	267
278.652	268
278.884	280
279.115	278
279.347	279
279.579	282
279.81	281
280.042	308
280.273	286
280.505	287
280.736	290
280.968	273
281.199	284
281.431	277
281.662	264
281.894	304
282.125	307
282.356	305
282.588	314
282.819	330
283.051	298
283.282	286
283.513	288
283.745	298
283.976	299
284.207	296
284.439	280
284.67	309
284.901	299
285.132	277
285.364	279
285.595	311
285.826	284
286.057	292
286.288	301
286.52	300
286.751	311
286.982	310
287.213	323
287.444	311
287.675	319
287.906	317
288.138	337
288.369	322
288.6	308
288.831	322
289.062	291
289.293	304
289.524	322
289.755	322
289.986	309
290.217	306
290.448	312
290.679	294
290.91	304
291.141	292
291.371	313
291.602	309
291.833	288
292.064	309
292.295	312
292.526	310
292.757	325
292.987	328
293.218	307
293.449	293
293.68	296
293.91	315
294.141	310
294.372	314
294.603	318
294.833	314
295.064	316
295.295	322
295.525	298
295.756	322
295.987	302
296.217	328
296.448	344
296.679	321
296.909	346
297.14	299
297.37	309
297.601	319
297.831	317
298.062	323
298.292	323
298.523	346
298.753	340
298.984	323
299.214	344
299.445	329
299.675	298
299.905	327
300.136	316
300.366	336
300.597	336
300.827	346
301.057	326
301.288	335
301.518	345
301.748	350
301.979	356
302.209	348
302.439	344
302.669	350
302.9	366
303.13	366
303.36	357
303.59	346
303.82	362
304.051	344
304.281	355
304.511	355
304.741	345
304.971	328
305.201	340
305.431	353
305.661	355
305.891	339
306.121	345
306.352	356
306.582	353
306.812	357
307.042	358
307.272	360
307.502	357
307.731	342
307.961	351
308.191	351
308.421	342
308.651	355
308.881	351
309.111	374
309.341	344
309.571	352
309.8	384
310.03	377
310.26	379
310.49	394
310.72	381
310.949	399
311.179	408
311.409	392
311.639	390
311.868	360
312.098	384
312.328	406
312.557	411
312.787	402
313.017	393
313.246	390
313.476	383
313.706	388
313.935	404
314.165	410
314.394	404
314.624	402
314.853	389
315.083	403
315.312	382
315.542	396
315.771	398
316.001	380
316.23	388
316.46	395
316.689	400
316.919	406
317.148	387
317.377	389
317.607	396
317.836	383
318.065	394
318.295	384
318.524	393
318.753	402
318.983	402
319.212	395
319.441	411
319.67	414
319.9	416
320.129	395
320.358	399
320.587	389
320.816	415
321.046	402
321.275	409
321.504	397
321.733	428
321.962	435
322.191	414
322.42	430
322.649	456
322.878	420
323.108	464
323.337	471
323.566	482
323.795	502
324.024	512
324.253	628
324.482	861
324.71	1296
324.939	1785
325.168	1496
325.397	831
325.626	592
325.855	522
326.084	490
326.313	508
326.542	486
326.77	537
326.999	622
327.228	814
327.457	1130
327.686	1330
327.914	904
328.143	629
328.372	563
328.6	556
328.829	531
329.058	548
329.287	532
329.515	497
329.744	481
329.972	495
330.201	498
330.43	524
330.658	543
330.887	552
331.115	559
331.344	499
331.572	475
331.801	485
332.03	486
332.258	475
332.486	466
332.715	469
332.943	480
333.172	488
333.4	484
333.629	490
333.857	495
334.085	491
334.314	523
334.542	516
334.771	537
334.999	527
335.227	503
335.455	481
335.684	470
335.912	465
336.14	444
336.369	456
336.597	474
336.825	470
337.053	459
337.281	451
337.51	466
337.738	442
337.966	463
338.194	442
338.422	436
338.65	459
338.878	458
339.106	441
339.334	424
339.562	440
339.79	448
340.018	452
340.246	447
340.474	452
340.702	434
340.93	418
341.158	414
341.386	428
341.614	434
341.842	426
342.07	441
342.298	408
342.526	418
342.754	411
342.981	419
343.209	409
343.437	418
343.665	449
343.893	456
344.12	456
344.348	468
344.576	444
344.804	442
345.031	460
345.259	449
345.487	440
345.714	434
345.942	414
346.17	430
346.397	430
346.625	411
346.853	418
347.08	423
347.308	425
347.535	429
347.763	421
347.99	419
348.218	412
348.445	441
348.673	416
348.9	399
349.128	419
349.355	404
349.583	415
349.81	411
350.037	399
350.265	407
350.492	396
350.72	391
350.947	411
351.174	401
351.402	447
351.629	404
351.856	414
352.083	423
352.311	410
352.538	431
352.765	434
352.992	418
353.22	402
353.447	399
353.674	416
353.901	396
354.128	404
354.355	378
354.583	381
354.81	376
355.037	393
355.264	374
355.491	383
355.718	402
355.945	361
356.172	397
356.399	386
356.626	382
356.853	406
357.08	394
357.307	397
357.534	399
357.761	387
357.988	385
358.215	386
358.441	405
358.668	393
358.895	388
359.122	395
359.349	400
359.576	421
359.802	403
360.029	434
360.256	439
360.483	430
360.709	411
360.936	417
361.163	408
361.39	441
361.616	384
361.843	391
362.07	413
362.296	437
362.523	411
362.749	386
362.976	370
363.203	389
363.429	389
363.656	409
363.882	396
364.109	383
364.335	407
364.562	386
364.788	373
365.015	377
365.241	406
365.468	425
365.694	395
365.92	379
366.147	368
366.373	382
366.599	386
366.826	374
367.052	397
367.278	373
367.505	368
367.731	378
367.957	390
368.184	389
368.41	387
368.636	380
368.862	403
369.089	393
369.315	393
369.541	392
369.767	402
369.993	378
370.219	391
370.445	387
370.672	388
370.898	383
371.124	387
371.35	369
371.576	386
371.802	367
372.028	392
372.254	392
372.48	371
372.706	386
372.932	416
373.158	388
373.384	394
373.61	407
373.835	388
374.061	392
374.287	394
374.513	388
374.739	391
374.965	384
375.191	394
375.416	412
375.642	410
375.868	393
376.094	399
376.319	375
376.545	401
376.771	394
376.997	404
377.222	376
377.448	377
377.674	395
377.899	386
378.125	376
378.35	379
378.576	392
378.802	386
379.027	390
379.253	360
379.478	366
379.704	380
379.929	392
380.155	390
380.38	388
380.606	379
380.831	387
381.057	361
381.282	404
381.507	358
381.733	394
381.958	381
382.184	402
382.409	384
382.634	402
382.86	391
383.085	374
383.31	404
383.535	381
383.761	395
383.986	400
384.211	421
384.436	413
384.662	403
384.887	403
385.112	385
385.337	415
385.562	418
385.787	439
386.013	419
386.238	425
386.463	448
386.688	434
386.913	424
387.138	421
387.363	446
387.588	423
387.813	420
388.038	424
388.263	410
388.488	416
388.713	421
388.938	406
389.163	404
389.387	420
389.612	380
389.837	437
390.062	421
390.287	434
390.512	415
390.736	403
390.961	416
391.186	409
391.411	423
391.636	442
391.86	428
392.085	448
392.31	432
392.534	438
392.759	455
392.984	406
393.208	430
393.433	430
393.658	423
393.882	417
394.107	442
394.331	432
394.556	422
394.78	421
395.005	443
395.229	436
395.454	428
395.678	451
395.903	449
396.127	451
396.352	464
396.576	436
396.801	438
397.025	455
397.249	429
397.474	447
397.698	455
397.922	478
398.147	484
398.371	469
398.595	474
398.82	485
399.044	488
399.268	508
399.492	551
399.717	582
399.941	593
400.165	626
400.389	596
400.613	539
400.837	512
401.062	494
401.286	489
401.51	514
401.734	496
401.958	490
402.182	482
402.406	483
402.63	503
402.854	508
403.078	465
403.302	505
403.526	509
403.75	495
403.974	499
404.198	482
404.422	518
404.645	512
404.869	514
405.093	561
405.317	546
405.541	583
405.765	559
405.988	542
406.212	558
406.436	543
406.66	542
406.883	531
407.107	572
407.331	614
407.555	647
407.778	640
408.002	593
408.226	556
408.449	547
408.673	562
408.896	548
409.12	591
409.344	569
409.567	530
409.791	508
410.014	501
410.238	510
410.461	510
410.685	505
410.908	526
411.132	547
411.355	552
411.578	538
411.802	494
412.025	491
412.249	506
412.472	516
412.695	532
412.919	529
413.142	496
413.365	483
413.589	471
413.812	480
414.035	490
414.258	471
414.482	447
414.705	472
414.928	466
415.151	475
415.374	447
415.597	467
415.821	473
416.044	487
416.267	463
416.49	458
416.713	448
416.936	449
417.159	460
417.382	471
417.605	459
417.828	465
418.051	460
418.274	460
418.497	452
418.72	471
418.943	438
419.166	480
419.389	507
419.611	494
419.834	490
420.057	482
420.28	486
420.503	496
420.726	472
420.948	489
421.171	516
421.394	548
421.617	497
421.839	483
422.062	467
422.285	503
422.507	527
422.73	602
422.953	560
423.175	509
423.398	521
423.621	499
423.843	517
424.066	533
424.288	522
424.511	531
424.733	562
424.956	633
425.178	625
425.401	588
425.623	640
425.846	528
426.068	528
426.291	495
426.513	492
426.735	516
426.958	518
427.18	605
427.402	711
427.625	780
427.847	691
428.069	580
428.292	553
428.514	484
428.736	463
428.958	466
429.181	460
429.403	459
429.625	480
429.847	498
430.069	572
430.292	542
430.514	476
430.736	468
430.958	458
431.18	443
431.402	438
431.624	438
431.846	435
432.068	438
432.29	466
432.512	438
432.734	476
432.956	444
433.178	448
433.4	455
433.622	456
433.844	437
434.066	469
434.287	435
434.509	444
434.731	472
434.953	459
435.175	497
435.397	512
435.618	505
435.84	552
436.062	604
436.284	663
436.505	546
436.727	494
436.949	470
437.17	464
437.392	446
437.614	470
437.835	491
438.057	569
438.278	650
438.5	660
438.721	686
438.943	687
439.165	551
439.386	518
439.608	499
439.829	516
440.05	492
440.272	548
440.493	536
440.715	463
440.936	488
441.158	467
441.379	464
441.6	486
441.822	497
442.043	530
442.264	623
442.486	642
442.707	549
442.928	527
443.149	514
443.371	503
443.592	557
443.813	626
444.034	696
444.255	588
444.476	532
444.698	517
444.919	515
445.14	602
445.361	537
445.582	541
445.803	599
446.024	664
446.245	674
446.466	628
446.687	538
446.908	508
447.129	487
447.35	459
447.571	447
447.792	440
448.013	463
448.234	447
448.455	503
448.675	603
448.896	692
449.117	594
449.338	562
449.559	660
449.779	721
450	582
450.221	498
450.442	452
450.662	449
450.883	446
451.104	443
451.324	431
451.545	429
451.766	402
451.986	399
452.207	411
452.428	396
452.648	413
452.869	404
453.089	424
453.31	415
453.53	402
453.751	394
453.971	395
454.192	422
454.412	392
454.633	404
454.853	417
455.073	392
455.294	409
455.514	440
455.734	459
455.955	410
456.175	402
456.395	374
456.616	391
456.836	381
457.056	374
457.276	373
457.497	376
457.717	377
457.937	399
458.157	399
458.377	404
458.598	425
458.818	477
459.038	511
459.258	543
459.478	472
459.698	461
459.918	445
460.138	446
460.358	444
460.578	458
460.798	449
461.018	458
461.238	468
461.458	458
461.678	450
461.898	468
462.118	471
462.338	458
462.558	457
462.777	472
462.997	489
463.217	482
463.437	498
463.657	494
463.876	508
464.096	487
464.316	483
464.536	481
464.755	490
464.975	495
465.195	485
465.414	543
465.634	511
465.854	454
466.073	452
466.293	437
466.512	421
466.732	421
466.951	430
467.171	414
467.391	415
467.61	408
467.829	423
468.049	431
468.268	408
468.488	396
468.707	413
468.927	397
469.146	402
469.365	391
469.585	418
469.804	428
470.023	414
470.243	416
470.462	412
470.681	405
470.901	430
471.12	427
471.339	446
471.558	410
471.777	426
471.997	419
472.216	436
472.435	438
472.654	419
472.873	430
473.092	426
473.311	399
473.53	427
473.749	440
473.968	462
474.187	538
474.406	567
474.625	455
474.844	420
475.063	404
475.282	415
475.501	436
475.72	433
475.939	412
476.158	444
476.377	430
476.596	436
476.814	440
477.033	432
477.252	460
477.471	437
477.69	443
477.908	483
478.127	481
478.346	466
478.564	471
478.783	488
479.002	476
479.22	499
479.439	515
479.658	514
479.876	522
480.095	508
480.313	531
480.532	548
480.751	542
480.969	522
481.188	550
481.406	569
481.624	523
481.843	494
482.061	486
482.28	510
482.498	499
482.717	478
482.935	498
483.153	504
483.372	478
483.59	484
483.808	470
484.027	482
484.245	484
484.463	485
484.681	500
484.9	510
485.118	489
485.336	487
485.554	501
485.772	480
485.99	479
486.209	489
486.427	492
486.645	520
486.863	524
487.081	505
487.299	503
487.517	510
487.735	516
487.953	497
488.171	523
488.389	531
488.607	519
488.825	510
489.043	524
489.261	528
489.479	534
489.696	521
489.914	502
490.132	524
490.35	506
490.568	539
490.786	553
491.003	538
491.221	554
491.439	579
491.657	584
491.874	603
492.092	562
492.31	585
492.527	602
492.745	594
492.963	588
493.18	583
493.398	599
493.615	605
493.833	578
494.05	579
494.268	605
494.485	591
494.703	614
494.92	603
495.138	615
495.355	584
495.573	607
495.79	599
496.008	608
496.225	617
496.442	604
496.66	596
496.877	632
497.094	595
497.312	632
497.529	618
497.746	620
497.963	634
498.181	686
498.398	700
498.615	672
498.832	700
499.049	746
499.267	778
499.484	786
499.701	830
499.918	842
500.135	874
500.352	912
500.569	964
500.786	949
501.003	934
501.22	896
501.437	854
501.654	840
501.871	793
502.088	773
502.305	734
502.522	720
502.739	724
502.956	664
503.172	674
503.389	635
503.606	627
503.823	653
504.04	616
504.256	638
504.473	616
504.69	624
504.907	649
505.123	610
505.34	589
505.557	594
505.773	576
505.99	568
506.207	583
506.423	587
506.64	554
506.856	564
507.073	544
507.289	551
507.506	564
507.722	558
507.939	563
508.155	545
508.372	534
508.588	556
508.805	531
509.021	561
509.238	570
509.454	572
509.67	556
509.887	552
510.103	553
510.319	549
510.536	601
510.752	881
510.968	710
511.184	551
511.401	516
511.617	536
511.833	510
512.049	504
512.265	488
512.481	500
512.698	480
512.914	500
513.13	494
513.346	522
513.562	476
513.778	495
513.994	504
514.21	526
514.426	525
514.642	561
514.858	547
515.074	616
515.29	660
515.506	904
515.721	778
515.937	587
516.153	563
516.369	523
516.585	541
516.801	518
517.016	540
517.232	536
517.448	531
517.664	561
517.879	539
518.095	551
518.311	565
518.527	538
518.742	572
518.958	530
519.173	518
519.389	507
519.605	525
519.82	523
520.036	522
520.251	519
520.467	549
520.682	524
520.898	516
521.113	546
521.329	596
521.544	598
521.76	733
521.975	1095
522.19	1045
522.406	663
522.621	555
522.836	521
523.052	518
523.267	490
523.482	486
523.698	466
523.913	474
524.128	474
524.343	474
524.559	436
524.774	451
524.989	449
525.204	447
525.419	430
525.634	446
525.849	438
526.064	430
526.28	455
526.495	426
526.71	430
526.925	431
527.14	412
527.355	416
527.57	382
527.785	415
527.999	414
528.214	411
528.429	436
528.644	424
528.859	407
529.074	433
529.289	438
529.503	470
529.718	459
529.933	445
530.148	436
530.363	449
530.577	426
530.792	406
531.007	418
531.221	434
531.436	430
531.651	412
531.865	410
532.08	419
532.295	412
532.509	394
532.724	408
532.938	398
533.153	395
533.367	423
533.582	420
533.796	416
534.011	406
534.225	386
534.44	402
534.654	402
534.868	410
535.083	420
535.297	406
535.511	415
535.726	397
535.94	405
536.154	413
536.369	400
536.583	397
536.797	401
537.011	385
537.225	388
537.44	388
537.654	404
537.868	386
538.082	405
538.296	392
538.51	386
538.724	389
538.938	387
539.153	397
539.367	418
539.581	405
539.795	411
540.009	421
540.222	384
540.436	381
540.65	389
540.864	404
541.078	388
541.292	385
541.506	412
541.72	380
541.934	386
542.147	380
542.361	387
542.575	404
542.789	392
543.002	395
543.216	388
543.43	400
543.644	402
543.857	400
544.071	407
544.285	410
544.498	389
544.712	384
544.925	372
545.139	394
545.352	394
545.566	378
545.779	367
545.993	396
546.206	395
546.42	375
546.633	372
546.847	377
547.06	392
547.274	382
547.487	388
547.7	392
547.914	380
548.127	378
548.34	386
548.554	378
548.767	383
548.98	391
549.193	369
549.407	355
549.62	386
549.833	386
550.046	375
550.259	376
550.473	372
550.686	383
550.899	366
551.112	374
551.325	380
551.538	382
551.751	380
551.964	373
552.177	357
552.39	357
552.603	394
552.816	374
553.029	390
553.242	397
553.455	394
553.667	388
553.88	397
554.093	420
554.306	400
554.519	388
554.732	384
554.944	370
555.157	355
555.37	375
555.583	367
555.795	376
556.008	347
556.221	352
556.433	326
556.646	329
556.859	355
557.071	369
557.284	347
557.496	346
557.709	332
557.921	340
558.134	339
558.346	331
558.559	338
558.771	323
558.984	325
559.196	332
559.409	319
559.621	335
559.833	307
560.046	326
560.258	315
560.47	322
560.683	328
560.895	338
561.107	327
561.32	341
561.532	329
561.744	339
561.956	338
562.168	350
562.381	336
562.593	322
562.805	337
563.017	355
563.229	338
563.441	339
563.653	337
563.865	353
564.077	342
564.289	348
564.501	357
564.713	369
564.925	346
565.137	353
565.349	359
565.561	351
565.773	372
565.985	386
566.197	387
566.408	399
566.62	426
566.832	432
567.044	392
567.255	430
567.467	435
567.679	456
567.891	464
568.102	462
568.314	456
568.526	419
568.737	396
568.949	410
569.161	390
569.372	392
569.584	355
569.795	336
570.007	366
570.218	357
570.43	360
570.641	356
570.853	337
571.064	337
571.276	342
571.487	338
571.698	306
571.91	323
572.121	318
572.333	328
572.544	303
572.755	293
572.966	294
573.178	305
573.389	289
573.6	302
573.811	290
574.023	278
574.234	297
574.445	298
574.656	288
574.867	282
575.078	298
575.289	291
575.501	282
575.712	296
575.923	293
576.134	302
576.345	288
576.556	287
576.767	286
576.978	278
577.188	286
577.399	295
577.61	286
577.821	280
578.032	293
578.243	293
578.454	415
578.665	326
578.875	280
579.086	274
579.297	271
579.508	281
579.718	278
579.929	290
580.14	274
580.35	240
580.561	265
580.772	276
580.982	290
581.193	268
581.403	272
581.614	271
581.825	269
582.035	262
582.246	279
582.456	258
582.667	268
582.877	258
583.087	248
583.298	270
583.508	278
583.719	259
583.929	272
584.139	261
584.35	248
584.56	263
584.77	258
584.981	257
585.191	260
585.401	267
585.611	259
585.821	271
586.032	256
586.242	247
586.452	248
586.662	252
586.872	255
587.082	257
587.292	263
587.502	249
587.713	256
587.923	274
588.133	274
588.343	245
588.553	264
588.762	260
588.972	262
589.182	258
589.392	255
589.602	258
589.812	246
590.022	254
590.232	274
590.441	254
590.651	255
590.861	259
591.071	242
591.281	259
591.49	237
591.7	271
591.91	265
592.119	252
592.329	294
592.539	278
592.748	273
592.958	275
593.167	270
593.377	282
593.587	286
593.796	281
594.006	284
594.215	296
594.424	286
594.634	278
594.843	283
595.053	279
595.262	266
595.472	261
595.681	265
595.89	267
596.1	242
596.309	260
596.518	256
596.727	254
596.937	234
597.146	250
597.355	227
597.564	238
597.774	221
597.983	222
598.192	243
598.401	266
598.61	241
598.819	228
599.028	234
599.237	223
599.446	224
599.655	219
599.864	225
600.073	216
600.282	219
600.491	242
600.7	224
600.909	227
601.118	226
601.327	228
601.536	231
601.745	218
601.953	212
602.162	228
602.371	217
602.58	227
602.789	227
602.997	225
603.206	221
603.415	213
603.623	220
603.832	200
604.041	204
604.249	208
604.458	234
604.666	217
604.875	213
605.084	202
605.292	214
605.501	210
605.709	203
605.918	205
606.126	215
606.334	220
606.543	208
606.751	214
606.96	202
607.168	216
607.376	206
607.585	204
607.793	224
608.001	211
608.21	210
608.418	226
608.626	206
608.834	210
609.043	208
609.251	214
609.459	206
609.667	207
609.875	212
610.083	199
610.291	214
610.499	197
610.707	204
610.916	196
611.124	203
611.332	221
611.54	207
611.748	203
611.955	207
612.163	200
612.371	211
612.579	192
612.787	209
612.995	199
613.203	197
613.411	216
613.618	211
613.826	199
614.034	192
614.242	201
614.449	209
614.657	224
614.865	200
615.072	208
615.28	206
615.488	208
615.695	196
615.903	209
616.111	196
616.318	199
616.526	207
616.733	197
616.941	212
617.148	213
617.356	215
617.563	193
617.771	199
617.978	204
618.185	199
618.393	194
618.6	206
618.807	211
619.015	179
619.222	203
619.429	178
619.637	180
619.844	215
620.051	203
620.258	197
620.466	193
620.673	198
620.88	175
621.087	212
621.294	191
621.501	198
621.708	185
621.915	194
622.122	188
622.329	206
622.536	178
622.743	200
622.95	182
623.157	182
623.364	181
623.571	207
623.778	182
623.985	179
624.192	191
624.399	182
624.606	183
624.812	178
625.019	189
625.226	184
625.433	182
625.639	168
625.846	182
626.053	168
626.259	175
626.466	184
626.673	167
626.879	173
627.086	193
627.293	177
627.499	202
627.706	199
627.912	171
628.119	170
628.325	186
628.532	170
628.738	170
628.945	171
629.151	168
629.357	171
629.564	164
629.77	172
629.976	164
630.183	142
630.389	168
630.595	159
630.802	168
631.008	159
631.214	170
631.42	171
631.627	168
631.833	161
632.039	155
632.245	184
632.451	169
632.657	163
632.863	160
633.069	159
633.275	173
633.481	197
633.688	149
633.893	184
634.099	155
634.305	159
634.511	171
634.717	163
634.923	164
635.129	154
635.335	160
635.541	158
635.747	148
635.952	148
636.158	161
636.364	167
636.57	155
636.775	162
636.981	156
637.187	184
637.392	162
637.598	152
637.804	156
638.009	167
638.215	165
638.421	167
638.626	158
638.832	166
639.037	170
639.243	151
639.448	158
639.654	150
639.859	170
640.065	139
640.27	145
640.475	153
640.681	158
640.886	154
641.091	153
641.297	173
641.502	146
641.707	165
641.913	152
642.118	143
642.323	153
642.528	144
642.733	167
642.939	156
643.144	150
643.349	163
643.554	149
643.759	140
643.964	152
644.169	165
644.374	134
644.579	150
644.784	144
644.989	156
645.194	136
645.399	160
645.604	160
645.809	143
646.014	139
646.219	154
646.423	151
646.628	148
646.833	145
647.038	158
647.243	141
647.447	150
647.652	155
647.857	159
648.062	147
648.266	145
648.471	161
648.676	148
648.88	138
649.085	140
649.289	145
649.494	163
649.698	170
649.903	159
650.107	150
650.312	135
650.516	153
650.721	156
650.925	139
651.13	145
651.334	141
651.539	128
651.743	143
651.947	146
652.152	134
652.356	128
652.56	137
652.764	127
652.969	134
653.173	123
653.377	132
653.581	108
653.785	130
653.99	122
654.194	131
654.398	118
654.602	131
654.806	136
655.01	148
655.214	127
655.418	122
655.622	122
655.826	119
656.03	129
656.234	124
656.438	117
656.642	137
656.846	102
657.049	123
657.253	124
657.457	124
657.661	116
657.865	117
658.068	95
658.272	106
658.476	93
658.68	103
658.883	92
659.087	95
659.291	110
659.494	105
659.698	93
659.901	101
660.105	90
660.309	97
660.512	100
660.716	84
660.919	104
661.123	99
661.326	88
661.53	103
661.733	86
661.936	82
662.14	88
662.343	84
662.546	76
662.75	101
662.953	86
663.156	82
663.36	90
663.563	87
663.766	75
663.969	79
664.173	90
664.376	63
664.579	88
664.782	94
664.985	78
665.188	76
665.391	86
665.594	84
665.797	83
666	79
666.203	84
666.406	83
666.609	90
666.812	72
667.015	78
667.218	88
667.421	88
667.624	76
667.827	79
668.03	75
668.232	77
668.435	70
668.638	76
668.841	89
669.043	74
669.246	79
669.449	67
669.651	84
669.854	82
670.057	75
670.259	89
670.462	83
670.665	66
670.867	81
671.07	85
671.272	71
671.475	86
671.677	87
671.88	89
672.082	75
672.284	78
672.487	60
672.689	81
672.892	77
