Data from 1977.PennyLincolnUp.Lamp.En5.5.200Scan.071719.P1_HRD10591_16-08-06-864.txt Node
Date: Thu Jul 18 16:08:06 EDT 2019
User: cochatt
Spectrometer: HR+D1059
Trigger mode: 1
Integration Time (sec): 1.000000E-1
Scans to average: 1
Electric dark correction enabled: true
Nonlinearity correction enabled: false
Boxcar width: 0
XAxis mode: Wavelengths
Number of Pixels in Spectrum: 2048
>>>>>Begin Spectral Data<<<<<
223.165	-13
223.4	-13
223.635	-13
223.869	-12
224.104	-17
224.338	-25
224.573	-11
224.808	-25
225.042	-3
225.277	-12
225.511	-9
225.746	-2
225.98	16
226.215	13
226.449	14
226.683	27
226.918	28
227.152	31
227.387	37
227.621	56
227.856	62
228.09	35
228.324	52
228.559	51
228.793	64
229.027	90
229.262	105
229.496	116
229.73	128
229.964	136
230.199	124
230.433	121
230.667	105
230.901	102
231.136	104
231.37	106
231.604	102
231.838	117
232.072	104
232.306	111
232.541	116
232.775	116
233.009	126
233.243	118
233.477	118
233.711	115
233.945	127
234.179	121
234.413	115
234.647	115
234.881	109
235.115	118
235.349	113
235.583	99
235.817	111
236.051	117
236.285	128
236.519	113
236.753	127
236.987	135
237.221	177
237.455	204
237.689	168
237.922	155
238.156	125
238.39	132
238.624	127
238.858	128
239.091	126
239.325	133
239.559	137
239.793	136
240.027	132
240.26	131
240.494	151
240.728	157
240.961	141
241.195	148
241.429	152
241.662	128
241.896	138
242.13	139
242.363	133
242.597	135
242.83	136
243.064	131
243.298	129
243.531	144
243.765	129
243.998	135
244.232	140
244.465	142
244.699	164
244.932	145
245.166	132
245.399	143
245.633	144
245.866	151
246.099	154
246.333	147
246.566	144
246.8	169
247.033	154
247.266	152
247.5	150
247.733	175
247.966	159
248.2	162
248.433	174
248.666	167
248.899	184
249.133	196
249.366	202
249.599	198
249.832	196
250.066	175
250.299	166
250.532	201
250.765	197
250.998	211
251.231	213
251.465	199
251.698	209
251.931	205
252.164	190
252.397	194
252.63	201
252.863	219
253.096	207
253.329	231
253.562	217
253.795	202
254.028	221
254.261	227
254.494	214
254.727	229
254.96	265
255.193	262
255.426	231
255.659	224
255.892	236
256.124	231
256.357	235
256.59	224
256.823	214
257.056	221
257.289	210
257.521	200
257.754	212
257.987	215
258.22	205
258.452	224
258.685	211
258.918	199
259.151	216
259.383	218
259.616	224
259.849	221
260.081	221
260.314	259
260.547	247
260.779	233
261.012	244
261.244	239
261.477	236
261.71	233
261.942	228
262.175	216
262.407	227
262.64	201
262.872	212
263.105	219
263.337	223
263.57	230
263.802	220
264.035	215
264.267	227
264.499	220
264.732	228
264.964	224
265.197	219
265.429	224
265.661	208
265.894	217
266.126	224
266.358	214
266.591	216
266.823	224
267.055	230
267.287	238
267.52	243
267.752	243
267.984	231
268.216	232
268.448	243
268.681	230
268.913	254
269.145	271
269.377	279
269.609	267
269.841	272
270.073	305
270.306	276
270.538	308
270.77	319
271.002	295
271.234	309
271.466	311
271.698	319
271.93	320
272.162	304
272.394	304
272.626	297
272.858	291
273.09	300
273.322	288
273.553	272
273.785	273
274.017	281
274.249	277
274.481	291
274.713	271
274.945	262
275.176	279
275.408	273
275.64	262
275.872	261
276.104	279
276.335	272
276.567	279
276.799	295
277.031	313
277.262	317
277.494	312
277.726	303
277.957	307
278.189	287
278.421	265
278.652	284
278.884	272
279.115	282
279.347	281
279.579	296
279.81	287
280.042	277
280.273	270
280.505	288
280.736	298
280.968	283
281.199	274
281.431	278
281.662	308
281.894	294
282.125	297
282.356	292
282.588	312
282.819	300
283.051	279
283.282	291
283.513	303
283.745	287
283.976	297
284.207	303
284.439	303
284.67	288
284.901	299
285.132	299
285.364	298
285.595	314
285.826	293
286.057	295
286.288	287
286.52	302
286.751	298
286.982	289
287.213	301
287.444	308
287.675	300
287.906	320
288.138	326
288.369	339
288.6	325
288.831	312
289.062	325
289.293	311
289.524	319
289.755	308
289.986	300
290.217	299
290.448	277
290.679	301
290.91	317
291.141	291
291.371	307
291.602	316
291.833	307
292.064	321
292.295	312
292.526	312
292.757	318
292.987	301
293.218	299
293.449	307
293.68	314
293.91	301
294.141	322
294.372	321
294.603	302
294.833	338
295.064	308
295.295	301
295.525	319
295.756	318
295.987	294
296.217	330
296.448	355
296.679	314
296.909	327
297.14	320
297.37	319
297.601	337
297.831	326
298.062	317
298.292	330
298.523	334
298.753	336
298.984	345
299.214	328
299.445	347
299.675	327
299.905	334
300.136	349
300.366	326
300.597	331
300.827	360
301.057	336
301.288	349
301.518	345
301.748	350
301.979	357
302.209	363
302.439	366
302.669	349
302.9	353
303.13	352
303.36	363
303.59	335
303.82	345
304.051	348
304.281	374
304.511	348
304.741	339
304.971	343
305.201	347
305.431	346
305.661	356
305.891	337
306.121	328
306.352	352
306.582	360
306.812	363
307.042	375
307.272	356
307.502	368
307.731	349
307.961	345
308.191	347
308.421	336
308.651	351
308.881	362
309.111	368
309.341	355
309.571	375
309.8	375
310.03	375
310.26	379
310.49	392
310.72	388
310.949	386
311.179	391
311.409	393
311.639	385
311.868	361
312.098	394
312.328	381
312.557	400
312.787	401
313.017	429
313.246	423
313.476	384
313.706	396
313.935	387
314.165	403
314.394	405
314.624	414
314.853	391
315.083	394
315.312	401
315.542	404
315.771	379
316.001	382
316.23	382
316.46	388
316.689	399
316.919	397
317.148	402
317.377	407
317.607	402
317.836	381
318.065	392
318.295	407
318.524	398
318.753	389
318.983	350
319.212	381
319.441	387
319.67	405
319.9	388
320.129	387
320.358	401
320.587	405
320.816	385
321.046	386
321.275	413
321.504	392
321.733	416
321.962	413
322.191	415
322.42	427
322.649	450
322.878	434
323.108	438
323.337	458
323.566	477
323.795	491
324.024	550
324.253	636
324.482	848
324.71	1297
324.939	1725
325.168	1477
325.397	800
325.626	594
325.855	522
326.084	502
326.313	465
326.542	483
326.77	527
326.999	600
327.228	800
327.457	1095
327.686	1307
327.914	875
328.143	639
328.372	571
328.6	549
328.829	523
329.058	530
329.287	539
329.515	492
329.744	509
329.972	495
330.201	506
330.43	537
330.658	553
330.887	564
331.115	547
331.344	508
331.572	493
331.801	499
332.03	486
332.258	489
332.486	494
332.715	473
332.943	469
333.172	483
333.4	478
333.629	476
333.857	501
334.085	493
334.314	517
334.542	513
334.771	515
334.999	507
335.227	477
335.455	460
335.684	475
335.912	484
336.14	458
336.369	447
336.597	453
336.825	462
337.053	465
337.281	447
337.51	449
337.738	444
337.966	451
338.194	439
338.422	456
338.65	440
338.878	469
339.106	455
339.334	460
339.562	440
339.79	455
340.018	425
340.246	466
340.474	438
340.702	452
340.93	422
341.158	462
341.386	455
341.614	444
341.842	442
342.07	432
342.298	453
342.526	428
342.754	443
342.981	434
343.209	430
343.437	445
343.665	455
343.893	448
344.12	467
344.348	472
344.576	465
344.804	449
345.031	471
345.259	450
345.487	455
345.714	440
345.942	413
346.17	427
346.397	429
346.625	423
346.853	417
347.08	423
347.308	423
347.535	425
347.763	418
347.99	431
348.218	429
348.445	435
348.673	431
348.9	425
349.128	409
349.355	400
349.583	408
349.81	412
350.037	406
350.265	399
350.492	415
350.72	392
350.947	423
351.174	415
351.402	411
351.629	416
351.856	414
352.083	409
352.311	420
352.538	407
352.765	419
352.992	412
353.22	400
353.447	399
353.674	405
353.901	391
354.128	395
354.355	401
354.583	403
354.81	428
355.037	393
355.264	383
355.491	390
355.718	387
355.945	370
356.172	392
356.399	375
356.626	391
356.853	396
357.08	384
357.307	390
357.534	367
357.761	399
357.988	408
358.215	400
358.441	393
358.668	390
358.895	408
359.122	404
359.349	390
359.576	407
359.802	426
360.029	442
360.256	451
360.483	429
360.709	417
360.936	415
361.163	417
361.39	413
361.616	415
361.843	402
362.07	393
362.296	420
362.523	421
362.749	409
362.976	362
363.203	419
363.429	391
363.656	396
363.882	395
364.109	395
364.335	385
364.562	380
364.788	400
365.015	410
365.241	403
365.468	391
365.694	398
365.92	401
366.147	397
366.373	376
366.599	377
366.826	383
367.052	400
367.278	383
367.505	367
367.731	389
367.957	385
368.184	398
368.41	390
368.636	397
368.862	415
369.089	404
369.315	391
369.541	385
369.767	387
369.993	407
370.219	399
370.445	381
370.672	392
370.898	389
371.124	397
371.35	389
371.576	409
371.802	397
372.028	397
372.254	400
372.48	380
372.706	383
372.932	384
373.158	400
373.384	397
373.61	396
373.835	390
374.061	381
374.287	390
374.513	388
374.739	410
374.965	394
375.191	401
375.416	415
375.642	405
375.868	402
376.094	389
376.319	385
376.545	401
376.771	382
376.997	382
377.222	383
377.448	392
377.674	380
377.899	392
378.125	396
378.35	397
378.576	377
378.802	382
379.027	380
379.253	389
379.478	356
379.704	383
379.929	367
380.155	393
380.38	385
380.606	404
380.831	388
381.057	385
381.282	387
381.507	383
381.733	388
381.958	387
382.184	385
382.409	412
382.634	404
382.86	405
383.085	401
383.31	408
383.535	407
383.761	395
383.986	411
384.211	400
384.436	409
384.662	401
384.887	415
385.112	408
385.337	418
385.562	437
385.787	425
386.013	455
386.238	421
386.463	424
386.688	411
386.913	431
387.138	415
387.363	436
387.588	417
387.813	433
388.038	440
388.263	437
388.488	460
388.713	440
388.938	428
389.163	443
389.387	417
389.612	423
389.837	416
390.062	410
390.287	425
390.512	416
390.736	429
390.961	418
391.186	409
391.411	422
391.636	460
391.86	450
392.085	472
392.31	465
392.534	438
392.759	451
392.984	426
393.208	429
393.433	427
393.658	431
393.882	428
394.107	419
394.331	439
394.556	419
394.78	430
395.005	449
395.229	424
395.454	440
395.678	441
395.903	466
396.127	448
396.352	472
396.576	470
396.801	435
397.025	426
397.249	441
397.474	463
397.698	442
397.922	488
398.147	461
398.371	494
398.595	479
398.82	486
399.044	499
399.268	516
399.492	555
399.717	582
399.941	595
400.165	627
400.389	607
400.613	575
400.837	527
401.062	495
401.286	488
401.51	485
401.734	474
401.958	479
402.182	491
402.406	483
402.63	502
402.854	487
403.078	515
403.302	502
403.526	523
403.75	535
403.974	499
404.198	504
404.422	495
404.645	487
404.869	505
405.093	543
405.317	567
405.541	593
405.765	560
405.988	544
406.212	500
406.436	510
406.66	535
406.883	563
407.107	576
407.331	594
407.555	639
407.778	649
408.002	591
408.226	571
408.449	525
408.673	543
408.896	553
409.12	602
409.344	565
409.567	536
409.791	521
410.014	507
410.238	506
410.461	468
410.685	492
410.908	513
411.132	536
411.355	575
411.578	550
411.802	495
412.025	499
412.249	513
412.472	523
412.695	555
412.919	545
413.142	486
413.365	504
413.589	503
413.812	478
414.035	468
414.258	474
414.482	464
414.705	472
414.928	460
415.151	465
415.374	451
415.597	474
415.821	472
416.044	470
416.267	476
416.49	476
416.713	463
416.936	457
417.159	485
417.382	441
417.605	459
417.828	475
418.051	506
418.274	483
418.497	459
418.72	472
418.943	474
419.166	484
419.389	488
419.611	501
419.834	490
420.057	490
420.28	485
420.503	473
420.726	500
420.948	488
421.171	519
421.394	532
421.617	516
421.839	493
422.062	476
422.285	492
422.507	531
422.73	606
422.953	571
423.175	539
423.398	494
423.621	484
423.843	508
424.066	499
424.288	516
424.511	488
424.733	581
424.956	637
425.178	615
425.401	622
425.623	597
425.846	518
426.068	525
426.291	522
426.513	514
426.735	521
426.958	545
427.18	601
427.402	721
427.625	767
427.847	685
428.069	617
428.292	521
428.514	496
428.736	485
428.958	462
429.181	473
429.403	470
429.625	491
429.847	503
430.069	557
430.292	545
430.514	480
430.736	473
430.958	461
431.18	469
431.402	433
431.624	456
431.846	439
432.068	467
432.29	451
432.512	453
432.734	475
432.956	437
433.178	469
433.4	460
433.622	454
433.844	449
434.066	460
434.287	447
434.509	450
434.731	452
434.953	473
435.175	471
435.397	510
435.618	506
435.84	529
436.062	602
436.284	661
436.505	560
436.727	499
436.949	485
437.17	464
437.392	429
437.614	483
437.835	494
438.057	574
438.278	651
438.5	673
438.721	709
438.943	680
439.165	559
439.386	515
439.608	511
439.829	493
440.05	542
440.272	547
440.493	549
440.715	486
440.936	494
441.158	462
441.379	475
441.6	481
441.822	494
442.043	524
442.264	588
442.486	645
442.707	549
442.928	524
443.149	514
443.371	559
443.592	563
443.813	663
444.034	691
444.255	599
444.476	535
444.698	541
444.919	515
445.14	656
445.361	560
445.582	535
445.803	605
446.024	657
446.245	652
446.466	597
446.687	531
446.908	506
447.129	477
447.35	458
447.571	449
447.792	443
448.013	432
448.234	473
448.455	529
448.675	613
448.896	694
449.117	593
449.338	557
449.559	661
449.779	752
450	591
450.221	497
450.442	467
450.662	446
450.883	453
451.104	445
451.324	439
451.545	424
451.766	428
451.986	419
452.207	423
452.428	420
452.648	413
452.869	381
453.089	414
453.31	430
453.53	413
453.751	421
453.971	426
454.192	438
454.412	407
454.633	393
454.853	399
455.073	395
455.294	419
455.514	463
455.734	465
455.955	419
456.175	405
456.395	389
456.616	393
456.836	388
457.056	379
457.276	389
457.497	385
457.717	397
457.937	409
458.157	416
458.377	427
458.598	424
458.818	451
459.038	518
459.258	519
459.478	479
459.698	465
459.918	446
460.138	445
460.358	448
460.578	443
460.798	477
461.018	466
461.238	464
461.458	445
461.678	449
461.898	469
462.118	473
462.338	490
462.558	460
462.777	476
462.997	505
463.217	533
463.437	527
463.657	515
463.876	489
464.096	503
464.316	484
464.536	497
464.755	479
464.975	493
465.195	504
465.414	539
465.634	496
465.854	459
466.073	433
466.293	429
466.512	435
466.732	443
466.951	422
467.171	427
467.391	422
467.61	434
467.829	423
468.049	416
468.268	399
468.488	428
468.707	416
468.927	396
469.146	405
469.365	406
469.585	435
469.804	450
470.023	426
470.243	431
470.462	424
470.681	435
470.901	451
471.12	444
471.339	436
471.558	428
471.777	420
471.997	427
472.216	428
472.435	439
472.654	431
472.873	449
473.092	424
473.311	420
473.53	431
473.749	424
473.968	466
474.187	553
474.406	544
474.625	461
474.844	435
475.063	420
475.282	414
475.501	426
475.72	449
475.939	436
476.158	427
476.377	447
476.596	451
476.814	447
477.033	464
477.252	455
477.471	461
477.69	457
477.908	450
478.127	476
478.346	471
478.564	486
478.783	468
479.002	483
479.22	483
479.439	495
479.658	498
479.876	520
480.095	521
480.313	537
480.532	542
480.751	528
480.969	530
481.188	560
481.406	573
481.624	540
481.843	519
482.061	523
482.28	502
482.498	511
482.717	470
482.935	481
483.153	482
483.372	494
483.59	481
483.808	476
484.027	499
484.245	498
484.463	492
484.681	501
484.9	513
485.118	507
485.336	501
485.554	470
485.772	520
485.99	496
486.209	521
486.427	511
486.645	528
486.863	526
487.081	528
487.299	509
487.517	513
487.735	528
487.953	497
488.171	527
488.389	538
488.607	505
488.825	512
489.043	505
489.261	529
489.479	532
489.696	508
489.914	537
490.132	548
490.35	551
490.568	559
490.786	553
491.003	576
491.221	569
491.439	588
491.657	566
491.874	571
492.092	565
492.31	576
492.527	575
492.745	575
492.963	604
493.18	608
493.398	614
493.615	603
493.833	600
494.05	588
494.268	607
494.485	594
494.703	613
494.92	582
495.138	598
495.355	611
495.573	606
495.79	605
496.008	602
496.225	599
496.442	604
496.66	616
496.877	601
497.094	621
497.312	621
497.529	641
497.746	653
497.963	663
498.181	655
498.398	661
498.615	685
498.832	707
499.049	745
499.267	734
499.484	779
499.701	815
499.918	840
500.135	892
500.352	930
500.569	971
500.786	941
501.003	951
501.22	880
501.437	859
501.654	841
501.871	827
502.088	764
502.305	743
502.522	721
502.739	715
502.956	680
503.172	663
503.389	634
503.606	631
503.823	647
504.04	646
504.256	623
504.473	619
504.69	633
504.907	639
505.123	590
505.34	607
505.557	577
505.773	601
505.99	591
506.207	611
506.423	571
506.64	559
506.856	570
507.073	577
507.289	573
507.506	572
507.722	552
507.939	572
508.155	561
508.372	559
508.588	540
508.805	524
509.021	536
509.238	541
509.454	565
509.67	554
509.887	563
510.103	542
510.319	554
510.536	608
510.752	865
510.968	728
511.184	551
511.401	513
511.617	532
511.833	509
512.049	524
512.265	508
512.481	517
512.698	503
512.914	529
513.13	472
513.346	506
513.562	509
513.778	503
513.994	513
514.21	533
514.426	516
514.642	532
514.858	553
515.074	603
515.29	674
515.506	870
515.721	749
515.937	581
516.153	571
516.369	547
516.585	530
516.801	534
517.016	552
517.232	562
517.448	559
517.664	557
517.879	549
518.095	545
518.311	555
518.527	545
518.742	550
518.958	521
519.173	525
519.389	529
519.605	535
519.82	506
520.036	523
520.251	509
520.467	537
520.682	534
520.898	525
521.113	547
521.329	572
521.544	608
521.76	714
521.975	1058
522.19	997
522.406	665
522.621	548
522.836	519
523.052	479
523.267	478
523.482	468
523.698	468
523.913	468
524.128	476
524.343	465
524.559	453
524.774	432
524.989	443
525.204	445
525.419	452
525.634	447
525.849	444
526.064	429
526.28	409
526.495	442
526.71	427
526.925	429
527.14	436
527.355	431
527.57	439
527.785	424
527.999	435
528.214	419
528.429	421
528.644	422
528.859	420
529.074	424
529.289	439
529.503	481
529.718	473
529.933	441
530.148	459
530.363	452
530.577	416
530.792	418
531.007	424
531.221	428
531.436	386
531.651	408
531.865	426
532.08	415
532.295	420
532.509	420
532.724	426
532.938	402
533.153	412
533.367	413
533.582	403
533.796	429
534.011	407
534.225	408
534.44	396
534.654	413
534.868	397
535.083	394
535.297	417
535.511	412
535.726	418
535.94	413
536.154	420
536.369	399
536.583	402
536.797	399
537.011	391
537.225	391
537.44	407
537.654	399
537.868	392
538.082	396
538.296	391
538.51	377
538.724	391
538.938	407
539.153	411
539.367	410
539.581	397
539.795	396
540.009	399
540.222	411
540.436	404
540.65	400
540.864	407
541.078	408
541.292	424
541.506	403
541.72	390
541.934	386
542.147	409
542.361	393
542.575	406
542.789	385
543.002	385
543.216	390
543.43	386
543.644	397
543.857	392
544.071	387
544.285	401
544.498	380
544.712	392
544.925	390
545.139	391
545.352	392
545.566	387
545.779	391
545.993	377
546.206	383
546.42	406
546.633	399
546.847	380
547.06	399
547.274	383
547.487	372
547.7	375
547.914	389
548.127	375
548.34	378
548.554	389
548.767	391
548.98	371
549.193	379
549.407	378
549.62	377
549.833	387
550.046	375
550.259	367
550.473	362
550.686	383
550.899	378
551.112	365
551.325	368
551.538	363
551.751	386
551.964	367
552.177	361
552.39	393
552.603	395
552.816	409
553.029	377
553.242	398
553.455	398
553.667	401
553.88	377
554.093	393
554.306	381
554.519	374
554.732	381
554.944	369
555.157	356
555.37	367
555.583	361
555.795	374
556.008	357
556.221	357
556.433	361
556.646	335
556.859	325
557.071	335
557.284	345
557.496	353
557.709	345
557.921	333
558.134	339
558.346	341
558.559	342
558.771	347
558.984	318
559.196	328
559.409	320
559.621	350
559.833	351
560.046	333
560.258	339
560.47	319
560.683	318
560.895	336
561.107	335
561.32	343
561.532	344
561.744	329
561.956	362
562.168	352
562.381	334
562.593	336
562.805	351
563.017	328
563.229	342
563.441	362
563.653	334
563.865	339
564.077	334
564.289	352
564.501	347
564.713	343
564.925	355
565.137	365
565.349	381
565.561	401
565.773	374
565.985	392
566.197	385
566.408	394
566.62	421
566.832	418
567.044	458
567.255	453
567.467	461
567.679	434
567.891	474
568.102	452
568.314	448
568.526	439
568.737	428
568.949	397
569.161	392
569.372	360
569.584	368
569.795	381
570.007	348
570.218	373
570.43	371
570.641	343
570.853	335
571.064	327
571.276	346
571.487	344
571.698	328
571.91	320
572.121	332
572.333	302
572.544	318
572.755	309
572.966	289
573.178	311
573.389	295
573.6	294
573.811	303
574.023	308
574.234	312
574.445	315
574.656	287
574.867	317
575.078	292
575.289	299
575.501	304
575.712	305
575.923	283
576.134	281
576.345	293
576.556	283
576.767	287
576.978	285
577.188	285
577.399	301
577.61	283
577.821	274
578.032	284
578.243	296
578.454	404
578.665	331
578.875	285
579.086	279
579.297	295
579.508	292
579.718	283
579.929	279
580.14	265
580.35	277
580.561	265
580.772	270
580.982	267
581.193	268
581.403	275
581.614	277
581.825	287
582.035	277
582.246	257
582.456	268
582.667	268
582.877	278
583.087	262
583.298	263
583.508	254
583.719	263
583.929	271
584.139	271
584.35	259
584.56	280
584.77	279
584.981	259
585.191	272
585.401	267
585.611	252
585.821	260
586.032	261
586.242	257
586.452	245
586.662	269
586.872	248
587.082	240
587.292	256
587.502	244
587.713	261
587.923	250
588.133	284
588.343	251
588.553	263
588.762	258
588.972	267
589.182	246
589.392	267
589.602	263
589.812	237
590.022	240
590.232	273
590.441	272
590.651	260
590.861	263
591.071	265
591.281	258
591.49	287
591.7	266
591.91	248
592.119	268
592.329	257
592.539	266
592.748	267
592.958	269
593.167	276
593.377	286
593.587	294
593.796	286
594.006	287
594.215	281
594.424	275
594.634	279
594.843	267
595.053	288
595.262	264
595.472	261
595.681	268
595.89	262
596.1	250
596.309	265
596.518	257
596.727	241
596.937	240
597.146	256
597.355	256
597.564	233
597.774	254
597.983	225
598.192	243
598.401	239
598.61	233
598.819	246
599.028	219
599.237	238
599.446	233
599.655	248
599.864	223
600.073	219
600.282	239
600.491	221
600.7	213
600.909	224
601.118	220
601.327	228
601.536	214
601.745	233
601.953	220
602.162	236
602.371	215
602.58	215
602.789	227
602.997	225
603.206	229
603.415	232
603.623	236
603.832	208
604.041	222
604.249	232
604.458	213
604.666	217
604.875	229
605.084	224
605.292	219
605.501	223
605.709	222
605.918	195
606.126	232
606.334	206
606.543	226
606.751	213
606.96	204
607.168	214
607.376	213
607.585	219
607.793	215
608.001	229
608.21	216
608.418	220
608.626	201
608.834	202
609.043	221
609.251	229
609.459	214
609.667	190
609.875	221
610.083	209
610.291	218
610.499	212
610.707	219
610.916	235
611.124	245
611.332	236
611.54	222
611.748	224
611.955	222
612.163	224
612.371	225
612.579	212
612.787	208
612.995	218
613.203	211
613.411	220
613.618	208
613.826	209
614.034	199
614.242	200
614.449	213
614.657	208
614.865	209
615.072	221
615.28	209
615.488	199
615.695	219
615.903	204
616.111	220
616.318	209
616.526	223
616.733	231
616.941	212
617.148	222
617.356	207
617.563	204
617.771	213
617.978	203
618.185	202
618.393	209
618.6	204
618.807	213
619.015	206
619.222	195
619.429	198
619.637	212
619.844	199
620.051	193
620.258	203
620.466	219
620.673	192
620.88	181
621.087	192
621.294	190
621.501	207
621.708	200
621.915	209
622.122	209
622.329	196
622.536	188
622.743	197
622.95	174
623.157	191
623.364	189
623.571	185
623.778	180
623.985	190
624.192	164
624.399	183
624.606	179
624.812	184
625.019	169
625.226	188
625.433	187
625.639	205
625.846	186
626.053	183
626.259	184
626.466	201
626.673	182
626.879	160
627.086	171
627.293	181
627.499	183
627.706	171
627.912	172
628.119	173
628.325	179
628.532	179
628.738	171
628.945	181
629.151	170
629.357	176
629.564	190
629.77	180
629.976	175
630.183	182
630.389	167
630.595	165
630.802	160
631.008	173
631.214	168
631.42	172
631.627	176
631.833	183
632.039	173
632.245	169
632.451	163
632.657	179
632.863	175
633.069	178
633.275	168
633.481	149
633.688	166
633.893	185
634.099	163
634.305	183
634.511	172
634.717	151
634.923	158
635.129	171
635.335	182
635.541	165
635.747	154
635.952	171
636.158	147
636.364	149
636.57	183
636.775	174
636.981	159
637.187	149
637.392	160
637.598	155
637.804	172
638.009	156
638.215	159
638.421	163
638.626	167
638.832	151
639.037	162
639.243	159
639.448	165
639.654	162
639.859	160
640.065	158
640.27	169
640.475	171
640.681	163
640.886	157
641.091	159
641.297	158
641.502	141
641.707	161
641.913	149
642.118	163
642.323	160
642.528	149
642.733	162
642.939	150
643.144	138
643.349	156
643.554	152
643.759	156
643.964	153
644.169	159
644.374	160
644.579	161
644.784	161
644.989	151
645.194	152
645.399	145
645.604	156
645.809	158
646.014	156
646.219	149
646.423	152
646.628	146
646.833	145
647.038	151
647.243	152
647.447	147
647.652	151
647.857	135
648.062	143
648.266	153
648.471	170
648.676	167
648.88	156
649.085	141
649.289	158
649.494	177
649.698	168
649.903	181
650.107	157
650.312	180
650.516	147
650.721	145
650.925	147
651.13	143
651.334	131
651.539	140
651.743	131
651.947	138
652.152	144
652.356	128
652.56	123
652.764	126
652.969	134
653.173	145
653.377	129
653.581	123
653.785	133
653.99	123
654.194	124
654.398	132
654.602	136
654.806	127
655.01	145
655.214	140
655.418	135
655.622	123
655.826	139
656.03	119
656.234	141
656.438	132
656.642	137
656.846	146
657.049	135
657.253	133
657.457	122
657.661	113
657.865	120
658.068	131
658.272	120
658.476	110
658.68	107
658.883	117
659.087	107
659.291	90
659.494	101
659.698	102
659.901	106
660.105	86
660.309	94
660.512	104
660.716	93
660.919	103
661.123	111
661.326	84
661.53	87
661.733	84
661.936	92
662.14	85
662.343	79
662.546	89
662.75	88
662.953	82
663.156	85
663.36	73
663.563	81
663.766	74
663.969	80
664.173	96
664.376	86
664.579	88
664.782	98
664.985	91
665.188	77
665.391	88
665.594	87
665.797	78
666	84
666.203	81
666.406	73
666.609	80
666.812	75
667.015	79
667.218	88
667.421	95
667.624	77
667.827	76
668.03	90
668.232	82
668.435	79
668.638	86
668.841	97
669.043	88
669.246	76
669.449	77
669.651	81
669.854	89
670.057	80
670.259	84
670.462	93
670.665	88
670.867	93
671.07	84
671.272	98
671.475	88
671.677	82
671.88	105
672.082	89
672.284	84
672.487	108
672.689	89
672.892	88
