Data from 1978.PennyLincolnUp.Lamp.En5.5.200Scan.071719.P1_HRD10591_16-11-34-865.txt Node
Date: Thu Jul 18 16:11:34 EDT 2019
User: cochatt
Spectrometer: HR+D1059
Trigger mode: 1
Integration Time (sec): 1.000000E-1
Scans to average: 1
Electric dark correction enabled: true
Nonlinearity correction enabled: false
Boxcar width: 0
XAxis mode: Wavelengths
Number of Pixels in Spectrum: 2048
>>>>>Begin Spectral Data<<<<<
223.165	-12
223.4	-12
223.635	-12
223.869	-13
224.104	-24
224.338	1
224.573	-9
224.808	-12
225.042	-4
225.277	-9
225.511	-13
225.746	4
225.98	5
226.215	17
226.449	6
226.683	17
226.918	20
227.152	26
227.387	31
227.621	38
227.856	39
228.09	52
228.324	53
228.559	55
228.793	67
229.027	81
229.262	93
229.496	102
229.73	92
229.964	127
230.199	121
230.433	95
230.667	95
230.901	105
231.136	97
231.37	108
231.604	110
231.838	97
232.072	116
232.306	104
232.541	117
232.775	95
233.009	96
233.243	107
233.477	110
233.711	117
233.945	99
234.179	93
234.413	113
234.647	108
234.881	106
235.115	116
235.349	131
235.583	115
235.817	109
236.051	126
236.285	120
236.519	101
236.753	114
236.987	107
237.221	138
237.455	177
237.689	139
237.922	118
238.156	103
238.39	123
238.624	124
238.858	115
239.091	117
239.325	113
239.559	117
239.793	116
240.027	120
240.26	125
240.494	121
240.728	119
240.961	132
241.195	124
241.429	123
241.662	126
241.896	122
242.13	124
242.363	130
242.597	113
242.83	110
243.064	110
243.298	129
243.531	121
243.765	128
243.998	138
244.232	136
244.465	128
244.699	122
244.932	133
245.166	121
245.399	119
245.633	132
245.866	143
246.099	130
246.333	128
246.566	135
246.8	120
247.033	149
247.266	137
247.5	145
247.733	145
247.966	154
248.2	139
248.433	151
248.666	153
248.899	159
249.133	145
249.366	168
249.599	158
249.832	164
250.066	141
250.299	155
250.532	139
250.765	161
250.998	159
251.231	170
251.465	163
251.698	168
251.931	179
252.164	153
252.397	152
252.63	175
252.863	161
253.096	177
253.329	189
253.562	174
253.795	187
254.028	169
254.261	160
254.494	173
254.727	186
254.96	191
255.193	172
255.426	171
255.659	178
255.892	176
256.124	163
256.357	167
256.59	176
256.823	185
257.056	174
257.289	161
257.521	180
257.754	175
257.987	168
258.22	186
258.452	181
258.685	165
258.918	161
259.151	157
259.383	167
259.616	153
259.849	177
260.081	199
260.314	198
260.547	182
260.779	175
261.012	187
261.244	169
261.477	189
261.71	174
261.942	189
262.175	184
262.407	187
262.64	189
262.872	180
263.105	176
263.337	183
263.57	169
263.802	179
264.035	185
264.267	184
264.499	177
264.732	183
264.964	179
265.197	178
265.429	179
265.661	181
265.894	206
266.126	190
266.358	175
266.591	183
266.823	205
267.055	208
267.287	205
267.52	196
267.752	200
267.984	197
268.216	206
268.448	189
268.681	193
268.913	199
269.145	213
269.377	211
269.609	206
269.841	220
270.073	217
270.306	217
270.538	211
270.77	232
271.002	236
271.234	224
271.466	224
271.698	245
271.93	228
272.162	235
272.394	232
272.626	232
272.858	219
273.09	223
273.322	208
273.553	212
273.785	222
274.017	203
274.249	211
274.481	225
274.713	221
274.945	223
275.176	220
275.408	213
275.64	226
275.872	219
276.104	220
276.335	218
276.567	231
276.799	225
277.031	252
277.262	234
277.494	245
277.726	240
277.957	213
278.189	229
278.421	232
278.652	228
278.884	221
279.115	220
279.347	222
279.579	246
279.81	251
280.042	255
280.273	225
280.505	233
280.736	223
280.968	224
281.199	247
281.431	220
281.662	233
281.894	216
282.125	207
282.356	233
282.588	252
282.819	240
283.051	229
283.282	228
283.513	237
283.745	225
283.976	236
284.207	233
284.439	223
284.67	237
284.901	251
285.132	237
285.364	235
285.595	244
285.826	243
286.057	238
286.288	236
286.52	236
286.751	238
286.982	246
287.213	246
287.444	240
287.675	234
287.906	246
288.138	260
288.369	249
288.6	231
288.831	242
289.062	259
289.293	251
289.524	248
289.755	272
289.986	259
290.217	251
290.448	247
290.679	261
290.91	232
291.141	247
291.371	259
291.602	269
291.833	248
292.064	257
292.295	260
292.526	235
292.757	261
292.987	245
293.218	248
293.449	251
293.68	255
293.91	264
294.141	262
294.372	269
294.603	267
294.833	239
295.064	259
295.295	283
295.525	252
295.756	263
295.987	256
296.217	266
296.448	285
296.679	282
296.909	263
297.14	257
297.37	272
297.601	254
297.831	251
298.062	256
298.292	275
298.523	251
298.753	285
298.984	263
299.214	260
299.445	273
299.675	279
299.905	274
300.136	251
300.366	281
300.597	276
300.827	299
301.057	292
301.288	264
301.518	261
301.748	266
301.979	283
302.209	283
302.439	282
302.669	302
302.9	284
303.13	275
303.36	283
303.59	266
303.82	281
304.051	267
304.281	296
304.511	289
304.741	292
304.971	283
305.201	287
305.431	291
305.661	278
305.891	298
306.121	293
306.352	291
306.582	292
306.812	273
307.042	281
307.272	306
307.502	284
307.731	283
307.961	291
308.191	280
308.421	289
308.651	308
308.881	284
309.111	291
309.341	298
309.571	302
309.8	310
310.03	299
310.26	295
310.49	297
310.72	310
310.949	303
311.179	313
311.409	302
311.639	307
311.868	319
312.098	302
312.328	310
312.557	307
312.787	316
313.017	320
313.246	321
313.476	316
313.706	318
313.935	308
314.165	316
314.394	313
314.624	331
314.853	315
315.083	323
315.312	302
315.542	301
315.771	327
316.001	332
316.23	316
316.46	311
316.689	332
316.919	320
317.148	326
317.377	343
317.607	320
317.836	324
318.065	328
318.295	328
318.524	309
318.753	345
318.983	336
319.212	333
319.441	344
319.67	325
319.9	319
320.129	341
320.358	325
320.587	321
320.816	322
321.046	336
321.275	330
321.504	334
321.733	342
321.962	337
322.191	334
322.42	324
322.649	345
322.878	344
323.108	352
323.337	358
323.566	381
323.795	387
324.024	402
324.253	445
324.482	608
324.71	883
324.939	1249
325.168	1152
325.397	614
325.626	432
325.855	399
326.084	379
326.313	374
326.542	385
326.77	421
326.999	435
327.228	567
327.457	833
327.686	991
327.914	669
328.143	477
328.372	429
328.6	409
328.829	393
329.058	387
329.287	430
329.515	401
329.744	379
329.972	384
330.201	379
330.43	407
330.658	430
330.887	427
331.115	420
331.344	379
331.572	367
331.801	401
332.03	391
332.258	374
332.486	372
332.715	382
332.943	381
333.172	400
333.4	373
333.629	402
333.857	376
334.085	401
334.314	419
334.542	419
334.771	425
334.999	423
335.227	378
335.455	397
335.684	396
335.912	400
336.14	384
336.369	387
336.597	389
336.825	400
337.053	391
337.281	383
337.51	371
337.738	390
337.966	387
338.194	393
338.422	398
338.65	377
338.878	374
339.106	361
339.334	383
339.562	389
339.79	361
340.018	379
340.246	393
340.474	382
340.702	370
340.93	373
341.158	371
341.386	369
341.614	373
341.842	366
342.07	361
342.298	368
342.526	379
342.754	361
342.981	357
343.209	384
343.437	377
343.665	367
343.893	385
344.12	407
344.348	391
344.576	386
344.804	398
345.031	385
345.259	384
345.487	381
345.714	380
345.942	365
346.17	355
346.397	359
346.625	384
346.853	363
347.08	360
347.308	360
347.535	360
347.763	359
347.99	365
348.218	355
348.445	360
348.673	383
348.9	371
349.128	377
349.355	363
349.583	365
349.81	366
350.037	357
350.265	366
350.492	364
350.72	364
350.947	373
351.174	375
351.402	391
351.629	384
351.856	372
352.083	365
352.311	359
352.538	347
352.765	377
352.992	380
353.22	356
353.447	341
353.674	369
353.901	369
354.128	360
354.355	360
354.583	358
354.81	356
355.037	350
355.264	344
355.491	341
355.718	350
355.945	358
356.172	344
356.399	363
356.626	363
356.853	357
357.08	345
357.307	356
357.534	358
357.761	368
357.988	359
358.215	356
358.441	360
358.668	357
358.895	364
359.122	348
359.349	366
359.576	363
359.802	383
360.029	359
360.256	391
360.483	376
360.709	356
360.936	380
361.163	379
361.39	373
361.616	352
361.843	368
362.07	384
362.296	364
362.523	368
362.749	360
362.976	373
363.203	369
363.429	357
363.656	365
363.882	355
364.109	365
364.335	374
364.562	368
364.788	351
365.015	357
365.241	357
365.468	353
365.694	352
365.92	360
366.147	352
366.373	378
366.599	366
366.826	364
367.052	366
367.278	358
367.505	370
367.731	383
367.957	365
368.184	385
368.41	371
368.636	374
368.862	391
369.089	381
369.315	381
369.541	378
369.767	367
369.993	387
370.219	361
370.445	359
370.672	377
370.898	364
371.124	392
371.35	367
371.576	373
371.802	375
372.028	381
372.254	384
372.48	384
372.706	407
372.932	385
373.158	382
373.384	391
373.61	396
373.835	384
374.061	393
374.287	395
374.513	384
374.739	383
374.965	402
375.191	387
375.416	392
375.642	375
375.868	391
376.094	407
376.319	395
376.545	394
376.771	380
376.997	386
377.222	373
377.448	394
377.674	379
377.899	366
378.125	380
378.35	387
378.576	383
378.802	371
379.027	365
379.253	385
379.478	359
379.704	375
379.929	387
380.155	382
380.38	383
380.606	390
380.831	390
381.057	399
381.282	369
381.507	385
381.733	417
381.958	406
382.184	413
382.409	407
382.634	398
382.86	421
383.085	414
383.31	427
383.535	403
383.761	409
383.986	395
384.211	429
384.436	413
384.662	430
384.887	426
385.112	442
385.337	451
385.562	454
385.787	430
386.013	449
386.238	443
386.463	444
386.688	449
386.913	433
387.138	445
387.363	431
387.588	442
387.813	439
388.038	438
388.263	460
388.488	441
388.713	427
388.938	447
389.163	435
389.387	454
389.612	437
389.837	439
390.062	427
390.287	427
390.512	445
390.736	440
390.961	423
391.186	422
391.411	447
391.636	435
391.86	451
392.085	467
392.31	462
392.534	438
392.759	450
392.984	453
393.208	468
393.433	495
393.658	484
393.882	462
394.107	458
394.331	472
394.556	439
394.78	447
395.005	432
395.229	444
395.454	453
395.678	460
395.903	476
396.127	480
396.352	468
396.576	454
396.801	461
397.025	487
397.249	504
397.474	471
397.698	473
397.922	485
398.147	482
398.371	483
398.595	482
398.82	501
399.044	489
399.268	547
399.492	557
399.717	588
399.941	586
400.165	604
400.389	600
400.613	585
400.837	553
401.062	523
401.286	514
401.51	505
401.734	502
401.958	511
402.182	505
402.406	528
402.63	511
402.854	503
403.078	512
403.302	514
403.526	503
403.75	516
403.974	494
404.198	517
404.422	530
404.645	499
404.869	511
405.093	532
405.317	559
405.541	576
405.765	535
405.988	568
406.212	552
406.436	565
406.66	562
406.883	552
407.107	574
407.331	604
407.555	662
407.778	647
408.002	592
408.226	569
408.449	577
408.673	571
408.896	573
409.12	598
409.344	565
409.567	549
409.791	544
410.014	549
410.238	520
410.461	518
410.685	534
410.908	556
411.132	551
411.355	581
411.578	556
411.802	544
412.025	515
412.249	533
412.472	535
412.695	541
412.919	558
413.142	523
413.365	507
413.589	506
413.812	492
414.035	504
414.258	478
414.482	484
414.705	509
414.928	501
415.151	512
415.374	509
415.597	483
415.821	485
416.044	488
416.267	476
416.49	477
416.713	477
416.936	515
417.159	472
417.382	505
417.605	508
417.828	517
418.051	495
418.274	484
418.497	487
418.72	491
418.943	474
419.166	522
419.389	526
419.611	528
419.834	496
420.057	497
420.28	515
420.503	499
420.726	480
420.948	505
421.171	532
421.394	561
421.617	535
421.839	508
422.062	480
422.285	519
422.507	545
422.73	616
422.953	585
423.175	555
423.398	525
423.621	529
423.843	542
424.066	529
424.288	528
424.511	537
424.733	599
424.956	648
425.178	617
425.401	611
425.623	629
425.846	560
426.068	520
426.291	539
426.513	497
426.735	535
426.958	549
427.18	592
427.402	717
427.625	785
427.847	636
428.069	555
428.292	539
428.514	512
428.736	531
428.958	511
429.181	485
429.403	483
429.625	522
429.847	496
430.069	563
430.292	563
430.514	509
430.736	491
430.958	489
431.18	475
431.402	464
431.624	476
431.846	476
432.068	471
432.29	483
432.512	475
432.734	455
432.956	484
433.178	485
433.4	511
433.622	490
433.844	497
434.066	492
434.287	469
434.509	464
434.731	485
434.953	487
435.175	496
435.397	520
435.618	547
435.84	549
436.062	621
436.284	681
436.505	585
436.727	507
436.949	513
437.17	507
437.392	482
437.614	497
437.835	504
438.057	558
438.278	629
438.5	651
438.721	721
438.943	718
439.165	542
439.386	505
439.608	519
439.829	484
440.05	515
440.272	565
440.493	543
440.715	496
440.936	512
441.158	500
441.379	479
441.6	500
441.822	539
442.043	536
442.264	599
442.486	655
442.707	545
442.928	501
443.149	524
443.371	548
443.592	574
443.813	637
444.034	698
444.255	599
444.476	553
444.698	538
444.919	531
445.14	667
445.361	601
445.582	579
445.803	581
446.024	649
446.245	649
446.466	613
446.687	535
446.908	510
447.129	488
447.35	476
447.571	488
447.792	469
448.013	501
448.234	506
448.455	527
448.675	593
448.896	712
449.117	607
449.338	565
449.559	657
449.779	744
450	577
450.221	505
450.442	480
450.662	465
450.883	481
451.104	490
451.324	452
451.545	458
451.766	458
451.986	435
452.207	439
452.428	448
452.648	459
452.869	436
453.089	451
453.31	448
453.53	458
453.751	439
453.971	456
454.192	451
454.412	448
454.633	447
454.853	434
455.073	443
455.294	447
455.514	480
455.734	500
455.955	451
456.175	434
456.395	425
456.616	411
456.836	435
457.056	431
457.276	431
457.497	414
457.717	444
457.937	431
458.157	460
458.377	448
458.598	469
458.818	477
459.038	542
459.258	557
459.478	500
459.698	485
459.918	487
460.138	468
460.358	497
460.578	504
460.798	515
461.018	524
461.238	515
461.458	524
461.678	515
461.898	525
462.118	524
462.338	544
462.558	560
462.777	529
462.997	569
463.217	572
463.437	576
463.657	563
463.876	555
464.096	580
464.316	526
464.536	554
464.755	548
464.975	526
465.195	551
465.414	597
465.634	523
465.854	495
466.073	503
466.293	504
466.512	477
466.732	478
466.951	498
467.171	472
467.391	467
467.61	453
467.829	484
468.049	459
468.268	462
468.488	455
468.707	474
468.927	465
469.146	457
469.365	465
469.585	454
469.804	468
470.023	469
470.243	477
470.462	473
470.681	479
470.901	478
471.12	489
471.339	475
471.558	476
471.777	489
471.997	477
472.216	471
472.435	489
472.654	503
472.873	489
473.092	503
473.311	488
473.53	482
473.749	471
473.968	503
474.187	553
474.406	580
474.625	501
474.844	486
475.063	471
475.282	473
475.501	454
475.72	496
475.939	482
476.158	483
476.377	482
476.596	488
476.814	499
477.033	510
477.252	517
477.471	521
477.69	509
477.908	523
478.127	540
478.346	530
478.564	511
478.783	528
479.002	562
479.22	574
479.439	565
479.658	555
479.876	579
480.095	571
480.313	583
480.532	563
480.751	581
480.969	588
481.188	583
481.406	596
481.624	577
481.843	576
482.061	552
482.28	556
482.498	560
482.717	570
482.935	581
483.153	553
483.372	554
483.59	575
483.808	563
484.027	541
484.245	548
484.463	564
484.681	598
484.9	573
485.118	597
485.336	593
485.554	574
485.772	583
485.99	595
486.209	567
486.427	571
486.645	586
486.863	585
487.081	575
487.299	601
487.517	607
487.735	581
487.953	588
488.171	604
488.389	594
488.607	585
488.825	579
489.043	604
489.261	605
489.479	603
489.696	590
489.914	618
490.132	629
490.35	620
490.568	615
490.786	610
491.003	610
491.221	616
491.439	641
491.657	631
491.874	635
492.092	635
492.31	660
492.527	645
492.745	649
492.963	661
493.18	652
493.398	653
493.615	658
493.833	663
494.05	637
494.268	678
494.485	652
494.703	654
494.92	671
495.138	653
495.355	684
495.573	660
495.79	659
496.008	695
496.225	675
496.442	686
496.66	695
496.877	715
497.094	724
497.312	715
497.529	724
497.746	722
497.963	747
498.181	739
498.398	746
498.615	799
498.832	816
499.049	822
499.267	833
499.484	883
499.701	926
499.918	958
500.135	991
500.352	1033
500.569	1038
500.786	1067
501.003	1052
501.22	1011
501.437	971
501.654	927
501.871	931
502.088	874
502.305	858
502.522	821
502.739	788
502.956	765
503.172	773
503.389	758
503.606	759
503.823	731
504.04	728
504.256	734
504.473	709
504.69	702
504.907	718
505.123	680
505.34	683
505.557	651
505.773	654
505.99	677
506.207	645
506.423	637
506.64	634
506.856	614
507.073	634
507.289	623
507.506	641
507.722	625
507.939	616
508.155	612
508.372	621
508.588	606
508.805	618
509.021	601
509.238	612
509.454	616
509.67	598
509.887	604
510.103	599
510.319	580
510.536	636
510.752	849
510.968	743
511.184	606
511.401	592
511.617	599
511.833	552
512.049	568
512.265	580
512.481	588
512.698	571
512.914	576
513.13	571
513.346	579
513.562	608
513.778	571
513.994	599
514.21	571
514.426	574
514.642	609
514.858	609
515.074	614
515.29	700
515.506	840
515.721	777
515.937	633
516.153	647
516.369	623
516.585	628
516.801	611
517.016	613
517.232	624
517.448	630
517.664	637
517.879	615
518.095	633
518.311	640
518.527	622
518.742	639
518.958	613
519.173	603
519.389	621
519.605	618
519.82	597
520.036	608
520.251	602
520.467	586
520.682	601
520.898	586
521.113	611
521.329	609
521.544	632
521.76	705
521.975	931
522.19	955
522.406	674
522.621	595
522.836	565
523.052	572
523.267	560
523.482	549
523.698	540
523.913	559
524.128	537
524.343	521
524.559	540
524.774	528
524.989	544
525.204	517
525.419	531
525.634	516
525.849	521
526.064	500
526.28	493
526.495	506
526.71	506
526.925	518
527.14	493
527.355	524
527.57	500
527.785	513
527.999	502
528.214	502
528.429	489
528.644	491
528.859	490
529.074	502
529.289	513
529.503	528
529.718	540
529.933	526
530.148	525
530.363	519
530.577	508
530.792	495
531.007	487
531.221	508
531.436	488
531.651	497
531.865	507
532.08	485
532.295	461
532.509	489
532.724	485
532.938	512
533.153	492
533.367	494
533.582	492
533.796	507
534.011	487
534.225	496
534.44	486
534.654	492
534.868	486
535.083	486
535.297	495
535.511	468
535.726	489
535.94	515
536.154	490
536.369	469
536.583	476
536.797	460
537.011	476
537.225	473
537.44	501
537.654	463
537.868	474
538.082	466
538.296	472
538.51	461
538.724	492
538.938	468
539.153	492
539.367	479
539.581	458
539.795	470
540.009	470
540.222	462
540.436	468
540.65	448
540.864	478
541.078	465
541.292	481
541.506	478
541.72	477
541.934	477
542.147	457
542.361	470
542.575	461
542.789	465
543.002	484
543.216	473
543.43	476
543.644	482
543.857	483
544.071	491
544.285	464
544.498	466
544.712	447
544.925	475
545.139	457
545.352	483
545.566	487
545.779	480
545.993	493
546.206	466
546.42	464
546.633	486
546.847	469
547.06	453
547.274	471
547.487	470
547.7	462
547.914	481
548.127	449
548.34	469
548.554	488
548.767	453
548.98	456
549.193	456
549.407	460
549.62	463
549.833	466
550.046	461
550.259	461
550.473	456
550.686	459
550.899	448
551.112	476
551.325	449
551.538	457
551.751	444
551.964	430
552.177	449
552.39	483
552.603	477
552.816	475
553.029	461
553.242	471
553.455	462
553.667	484
553.88	485
554.093	481
554.306	456
554.519	472
554.732	473
554.944	459
555.157	463
555.37	445
555.583	434
555.795	437
556.008	437
556.221	425
556.433	439
556.646	440
556.859	432
557.071	435
557.284	431
557.496	431
557.709	431
557.921	435
558.134	421
558.346	411
558.559	424
558.771	423
558.984	425
559.196	408
559.409	430
559.621	422
559.833	392
560.046	414
560.258	401
560.47	409
560.683	407
560.895	429
561.107	395
561.32	420
561.532	408
561.744	385
561.956	432
562.168	409
562.381	417
562.593	412
562.805	398
563.017	396
563.229	424
563.441	421
563.653	413
563.865	407
564.077	435
564.289	439
564.501	436
564.713	439
564.925	444
565.137	460
565.349	461
565.561	475
565.773	469
565.985	474
566.197	514
566.408	499
566.62	535
566.832	519
567.044	543
567.255	548
567.467	555
567.679	537
567.891	554
568.102	576
568.314	558
568.526	533
568.737	521
568.949	517
569.161	465
569.372	441
569.584	463
569.795	440
570.007	424
570.218	451
570.43	452
570.641	436
570.853	425
571.064	418
571.276	418
571.487	415
571.698	418
571.91	409
572.121	408
572.333	409
572.544	402
572.755	406
572.966	399
573.178	389
573.389	389
573.6	388
573.811	380
574.023	377
574.234	379
574.445	364
574.656	355
574.867	359
575.078	388
575.289	368
575.501	366
575.712	362
575.923	364
576.134	362
576.345	373
576.556	369
576.767	370
576.978	360
577.188	345
577.399	352
577.61	341
577.821	393
578.032	351
578.243	373
578.454	431
578.665	400
578.875	371
579.086	337
579.297	336
579.508	336
579.718	350
579.929	347
580.14	337
580.35	355
580.561	351
580.772	339
580.982	333
581.193	336
581.403	348
581.614	334
581.825	343
582.035	343
582.246	335
582.456	324
582.667	347
582.877	329
583.087	345
583.298	331
583.508	325
583.719	326
583.929	320
584.139	343
584.35	343
584.56	339
584.77	335
584.981	308
585.191	322
585.401	338
585.611	327
585.821	336
586.032	320
586.242	330
586.452	320
586.662	319
586.872	331
587.082	335
587.292	326
587.502	336
587.713	334
587.923	345
588.133	328
588.343	329
588.553	329
588.762	341
588.972	308
589.182	335
589.392	348
589.602	337
589.812	317
590.022	339
590.232	315
590.441	322
590.651	323
590.861	311
591.071	326
591.281	330
591.49	336
591.7	339
591.91	320
592.119	315
592.329	337
592.539	346
592.748	341
592.958	352
593.167	335
593.377	344
593.587	336
593.796	355
594.006	355
594.215	352
594.424	336
594.634	354
594.843	327
595.053	342
595.262	334
595.472	320
595.681	328
595.89	311
596.1	316
596.309	327
596.518	345
596.727	321
596.937	297
597.146	302
597.355	311
597.564	300
597.774	314
597.983	307
598.192	312
598.401	318
598.61	319
598.819	286
599.028	289
599.237	305
599.446	310
599.655	297
599.864	317
600.073	285
600.282	293
600.491	275
600.7	284
600.909	279
601.118	293
601.327	300
601.536	281
601.745	269
601.953	282
602.162	272
602.371	297
602.58	293
602.789	269
602.997	283
603.206	286
603.415	271
603.623	285
603.832	273
604.041	284
604.249	280
604.458	286
604.666	288
604.875	274
605.084	259
605.292	265
605.501	270
605.709	272
605.918	265
606.126	272
606.334	277
606.543	276
606.751	278
606.96	263
607.168	281
607.376	256
607.585	266
607.793	256
608.001	262
608.21	273
608.418	265
608.626	253
608.834	248
609.043	260
609.251	285
609.459	255
609.667	266
609.875	273
610.083	269
610.291	246
610.499	241
610.707	286
610.916	279
611.124	272
611.332	292
611.54	273
611.748	280
611.955	271
612.163	269
612.371	270
612.579	272
612.787	275
612.995	272
613.203	269
613.411	270
613.618	222
613.826	242
614.034	267
614.242	271
614.449	273
614.657	270
614.865	267
615.072	259
615.28	263
615.488	239
615.695	258
615.903	257
616.111	268
616.318	267
616.526	246
616.733	249
616.941	245
617.148	238
617.356	247
617.563	267
617.771	259
617.978	246
618.185	251
618.393	264
618.6	263
618.807	231
619.015	261
619.222	238
619.429	234
619.637	236
619.844	265
620.051	241
620.258	254
620.466	248
620.673	221
620.88	235
621.087	234
621.294	242
621.501	223
621.708	248
621.915	222
622.122	243
622.329	244
622.536	247
622.743	245
622.95	238
623.157	229
623.364	237
623.571	234
623.778	253
623.985	232
624.192	222
624.399	220
624.606	233
624.812	237
625.019	234
625.226	221
625.433	240
625.639	220
625.846	239
626.053	241
626.259	233
626.466	216
626.673	212
626.879	212
627.086	227
627.293	224
627.499	226
627.706	220
627.912	225
628.119	240
628.325	243
628.532	219
628.738	234
628.945	219
629.151	204
629.357	220
629.564	233
629.77	207
629.976	210
630.183	210
630.389	212
630.595	215
630.802	213
631.008	225
631.214	197
631.42	193
631.627	201
631.833	214
632.039	215
632.245	219
632.451	213
632.657	204
632.863	205
633.069	215
633.275	216
633.481	228
633.688	200
633.893	192
634.099	198
634.305	216
634.511	184
634.717	205
634.923	196
635.129	198
635.335	211
635.541	199
635.747	208
635.952	199
636.158	192
636.364	213
636.57	191
636.775	211
636.981	200
637.187	205
637.392	192
637.598	185
637.804	200
638.009	205
638.215	185
638.421	179
638.626	197
638.832	199
639.037	195
639.243	173
639.448	198
639.654	195
639.859	195
640.065	187
640.27	189
640.475	191
640.681	199
640.886	188
641.091	195
641.297	185
641.502	197
641.707	186
641.913	181
642.118	189
642.323	185
642.528	185
642.733	188
642.939	185
643.144	176
643.349	184
643.554	179
643.759	172
643.964	168
644.169	186
644.374	168
644.579	169
644.784	172
644.989	185
645.194	168
645.399	176
645.604	186
645.809	187
646.014	176
646.219	176
646.423	180
646.628	186
646.833	175
647.038	170
647.243	189
647.447	179
647.652	169
647.857	179
648.062	210
648.266	191
648.471	185
648.676	183
648.88	187
649.085	189
649.289	191
649.494	171
649.698	203
649.903	197
650.107	189
650.312	183
650.516	179
650.721	171
650.925	170
651.13	172
651.334	174
651.539	179
651.743	166
651.947	156
652.152	177
652.356	167
652.56	160
652.764	179
652.969	169
653.173	155
653.377	149
653.581	155
653.785	166
653.99	155
654.194	161
654.398	162
654.602	151
654.806	154
655.01	148
655.214	164
655.418	155
655.622	153
655.826	147
656.03	154
656.234	154
656.438	166
656.642	159
656.846	137
657.049	159
657.253	140
657.457	125
657.661	135
657.865	144
658.068	128
658.272	117
658.476	129
658.68	111
658.883	122
659.087	108
659.291	106
659.494	118
659.698	89
659.901	112
660.105	80
660.309	101
660.512	97
660.716	108
660.919	92
661.123	105
661.326	104
661.53	100
661.733	92
661.936	103
662.14	81
662.343	99
662.546	76
662.75	81
662.953	94
663.156	88
663.36	88
663.563	81
663.766	77
663.969	89
664.173	83
664.376	95
664.579	86
664.782	91
664.985	85
665.188	99
665.391	98
665.594	77
665.797	83
666	90
666.203	88
666.406	73
666.609	81
666.812	78
667.015	91
667.218	91
667.421	87
667.624	72
667.827	93
668.03	86
668.232	74
668.435	88
668.638	80
668.841	89
669.043	89
669.246	82
669.449	81
669.651	89
669.854	80
670.057	92
670.259	87
670.462	79
670.665	76
670.867	93
671.07	82
671.272	89
671.475	84
671.677	101
671.88	97
672.082	84
672.284	79
672.487	83
672.689	87
672.892	88
