Data from 1979.PennyLincolnUp.Lamp.En5.5.200Scan.071719.P1_HRD10591_16-20-36-863.txt Node
Date: Thu Jul 18 16:20:36 EDT 2019
User: cochatt
Spectrometer: HR+D1059
Trigger mode: 1
Integration Time (sec): 1.000000E-1
Scans to average: 1
Electric dark correction enabled: true
Nonlinearity correction enabled: false
Boxcar width: 0
XAxis mode: Wavelengths
Number of Pixels in Spectrum: 2048
>>>>>Begin Spectral Data<<<<<
223.165	-6
223.4	-6
223.635	-6
223.869	-16
224.104	-12
224.338	-19
224.573	-17
224.808	-11
225.042	-15
225.277	1
225.511	9
225.746	-13
225.98	-8
226.215	4
226.449	8
226.683	21
226.918	30
227.152	44
227.387	41
227.621	53
227.856	43
228.09	36
228.324	44
228.559	52
228.793	59
229.027	99
229.262	109
229.496	97
229.73	141
229.964	142
230.199	124
230.433	107
230.667	106
230.901	105
231.136	108
231.37	104
231.604	120
231.838	115
232.072	91
232.306	112
232.541	116
232.775	108
233.009	112
233.243	94
233.477	120
233.711	123
233.945	110
234.179	120
234.413	126
234.647	125
234.881	107
235.115	105
235.349	122
235.583	118
235.817	117
236.051	125
236.285	135
236.519	134
236.753	119
236.987	149
237.221	177
237.455	227
237.689	182
237.922	142
238.156	136
238.39	127
238.624	112
238.858	119
239.091	130
239.325	125
239.559	133
239.793	122
240.027	123
240.26	127
240.494	172
240.728	152
240.961	143
241.195	149
241.429	138
241.662	132
241.896	130
242.13	138
242.363	115
242.597	148
242.83	144
243.064	142
243.298	136
243.531	129
243.765	140
243.998	145
244.232	129
244.465	139
244.699	161
244.932	136
245.166	138
245.399	148
245.633	148
245.866	143
246.099	144
246.333	161
246.566	162
246.8	156
247.033	144
247.266	151
247.5	173
247.733	160
247.966	175
248.2	153
248.433	185
248.666	164
248.899	186
249.133	180
249.366	208
249.599	204
249.832	188
250.066	178
250.299	170
250.532	204
250.765	190
250.998	214
251.231	225
251.465	193
251.698	196
251.931	184
252.164	193
252.397	200
252.63	214
252.863	192
253.096	221
253.329	202
253.562	232
253.795	209
254.028	231
254.261	213
254.494	213
254.727	234
254.96	276
255.193	247
255.426	224
255.659	210
255.892	209
256.124	231
256.357	233
256.59	216
256.823	216
257.056	210
257.289	202
257.521	192
257.754	209
257.987	221
258.22	209
258.452	206
258.685	200
258.918	197
259.151	190
259.383	216
259.616	221
259.849	219
260.081	212
260.314	243
260.547	234
260.779	232
261.012	210
261.244	222
261.477	228
261.71	218
261.942	233
262.175	230
262.407	227
262.64	199
262.872	216
263.105	207
263.337	210
263.57	216
263.802	205
264.035	210
264.267	190
264.499	205
264.732	216
264.964	198
265.197	197
265.429	207
265.661	215
265.894	220
266.126	206
266.358	216
266.591	209
266.823	224
267.055	228
267.287	197
267.52	221
267.752	229
267.984	210
268.216	222
268.448	245
268.681	232
268.913	246
269.145	258
269.377	271
269.609	281
269.841	246
270.073	265
270.306	282
270.538	306
270.77	291
271.002	288
271.234	274
271.466	296
271.698	306
271.93	308
272.162	298
272.394	295
272.626	284
272.858	284
273.09	293
273.322	267
273.553	236
273.785	249
274.017	268
274.249	254
274.481	257
274.713	252
274.945	266
275.176	268
275.408	259
275.64	276
275.872	238
276.104	235
276.335	257
276.567	272
276.799	276
277.031	303
277.262	302
277.494	320
277.726	292
277.957	295
278.189	262
278.421	255
278.652	267
278.884	262
279.115	275
279.347	274
279.579	269
279.81	264
280.042	252
280.273	254
280.505	253
280.736	238
280.968	275
281.199	263
281.431	269
281.662	274
281.894	284
282.125	274
282.356	273
282.588	306
282.819	298
283.051	287
283.282	285
283.513	272
283.745	272
283.976	283
284.207	280
284.439	295
284.67	282
284.901	292
285.132	278
285.364	273
285.595	292
285.826	277
286.057	281
286.288	284
286.52	282
286.751	297
286.982	284
287.213	271
287.444	281
287.675	291
287.906	311
288.138	295
288.369	281
288.6	304
288.831	281
289.062	299
289.293	264
289.524	288
289.755	289
289.986	274
290.217	279
290.448	285
290.679	305
290.91	289
291.141	289
291.371	292
291.602	313
291.833	293
292.064	285
292.295	277
292.526	288
292.757	291
292.987	309
293.218	273
293.449	310
293.68	312
293.91	299
294.141	300
294.372	297
294.603	276
294.833	308
295.064	296
295.295	289
295.525	299
295.756	306
295.987	306
296.217	328
296.448	338
296.679	315
296.909	315
297.14	299
297.37	301
297.601	282
297.831	305
298.062	306
298.292	318
298.523	320
298.753	305
298.984	319
299.214	309
299.445	323
299.675	323
299.905	322
300.136	320
300.366	308
300.597	319
300.827	328
301.057	302
301.288	314
301.518	329
301.748	348
301.979	329
302.209	324
302.439	314
302.669	334
302.9	347
303.13	324
303.36	346
303.59	356
303.82	336
304.051	353
304.281	317
304.511	344
304.741	311
304.971	337
305.201	325
305.431	347
305.661	324
305.891	345
306.121	310
306.352	327
306.582	326
306.812	337
307.042	336
307.272	334
307.502	317
307.731	348
307.961	339
308.191	313
308.421	353
308.651	331
308.881	346
309.111	357
309.341	339
309.571	342
309.8	369
310.03	360
310.26	387
310.49	370
310.72	391
310.949	386
311.179	397
311.409	366
311.639	390
311.868	375
312.098	385
312.328	384
312.557	401
312.787	402
313.017	405
313.246	401
313.476	377
313.706	374
313.935	390
314.165	392
314.394	404
314.624	427
314.853	393
315.083	368
315.312	369
315.542	380
315.771	360
316.001	368
316.23	373
316.46	359
316.689	380
316.919	380
317.148	374
317.377	384
317.607	373
317.836	386
318.065	364
318.295	390
318.524	382
318.753	377
318.983	374
319.212	363
319.441	386
319.67	393
319.9	395
320.129	403
320.358	387
320.587	381
320.816	405
321.046	405
321.275	407
321.504	389
321.733	376
321.962	412
322.191	417
322.42	421
322.649	422
322.878	425
323.108	451
323.337	477
323.566	492
323.795	533
324.024	558
324.253	678
324.482	921
324.71	1489
324.939	2190
325.168	1891
325.397	914
325.626	628
325.855	545
326.084	501
326.313	500
326.542	478
326.77	560
326.999	622
327.228	857
327.457	1354
327.686	1673
327.914	1054
328.143	705
328.372	609
328.6	588
328.829	551
329.058	561
329.287	578
329.515	547
329.744	497
329.972	492
330.201	505
330.43	572
330.658	564
330.887	593
331.115	606
331.344	537
331.572	498
331.801	513
332.03	493
332.258	473
332.486	467
332.715	491
332.943	484
333.172	459
333.4	472
333.629	491
333.857	503
334.085	502
334.314	502
334.542	556
334.771	563
334.999	518
335.227	497
335.455	477
335.684	480
335.912	473
336.14	481
336.369	459
336.597	460
336.825	481
337.053	486
337.281	463
337.51	457
337.738	453
337.966	455
338.194	469
338.422	447
338.65	444
338.878	437
339.106	442
339.334	444
339.562	444
339.79	446
340.018	419
340.246	442
340.474	456
340.702	453
340.93	427
341.158	443
341.386	448
341.614	432
341.842	425
342.07	444
342.298	448
342.526	425
342.754	407
342.981	419
343.209	423
343.437	436
343.665	447
343.893	476
344.12	437
344.348	444
344.576	456
344.804	444
345.031	471
345.259	462
345.487	454
345.714	434
345.942	428
346.17	420
346.397	422
346.625	410
346.853	443
347.08	418
347.308	443
347.535	426
347.763	447
347.99	449
348.218	418
348.445	446
348.673	425
348.9	430
349.128	411
349.355	422
349.583	427
349.81	404
350.037	420
350.265	426
350.492	409
350.72	417
350.947	409
351.174	416
351.402	449
351.629	416
351.856	432
352.083	451
352.311	441
352.538	449
352.765	429
352.992	422
353.22	420
353.447	414
353.674	436
353.901	414
354.128	403
354.355	413
354.583	406
354.81	402
355.037	409
355.264	386
355.491	403
355.718	400
355.945	394
356.172	404
356.399	390
356.626	413
356.853	406
357.08	390
357.307	405
357.534	384
357.761	404
357.988	428
358.215	409
358.441	404
358.668	410
358.895	397
359.122	417
359.349	418
359.576	426
359.802	421
360.029	468
360.256	491
360.483	462
360.709	452
360.936	440
361.163	433
361.39	435
361.616	457
361.843	429
362.07	416
362.296	432
362.523	428
362.749	444
362.976	425
363.203	416
363.429	412
363.656	417
363.882	430
364.109	419
364.335	399
364.562	399
364.788	409
365.015	427
365.241	419
365.468	410
365.694	422
365.92	427
366.147	432
366.373	412
366.599	420
366.826	410
367.052	418
367.278	409
367.505	419
367.731	426
367.957	416
368.184	433
368.41	403
368.636	436
368.862	430
369.089	436
369.315	394
369.541	416
369.767	410
369.993	423
370.219	421
370.445	409
370.672	413
370.898	424
371.124	420
371.35	448
371.576	427
371.802	437
372.028	403
372.254	430
372.48	434
372.706	419
372.932	426
373.158	435
373.384	424
373.61	437
373.835	435
374.061	437
374.287	445
374.513	436
374.739	430
374.965	427
375.191	424
375.416	441
375.642	430
375.868	406
376.094	434
376.319	425
376.545	423
376.771	415
376.997	419
377.222	430
377.448	430
377.674	404
377.899	389
378.125	432
378.35	422
378.576	417
378.802	422
379.027	413
379.253	428
379.478	424
379.704	413
379.929	433
380.155	421
380.38	412
380.606	422
380.831	429
381.057	433
381.282	434
381.507	411
381.733	432
381.958	425
382.184	442
382.409	428
382.634	425
382.86	436
383.085	450
383.31	442
383.535	448
383.761	442
383.986	439
384.211	441
384.436	432
384.662	446
384.887	459
385.112	476
385.337	457
385.562	468
385.787	467
386.013	467
386.238	479
386.463	485
386.688	468
386.913	468
387.138	444
387.363	463
387.588	465
387.813	466
388.038	459
388.263	476
388.488	494
388.713	463
388.938	470
389.163	486
389.387	495
389.612	460
389.837	493
390.062	477
390.287	484
390.512	473
390.736	483
390.961	473
391.186	496
391.411	485
391.636	476
391.86	496
392.085	489
392.31	488
392.534	482
392.759	480
392.984	492
393.208	494
393.433	473
393.658	489
393.882	463
394.107	467
394.331	498
394.556	487
394.78	498
395.005	484
395.229	507
395.454	504
395.678	500
395.903	514
396.127	532
396.352	545
396.576	497
396.801	499
397.025	502
397.249	512
397.474	530
397.698	525
397.922	530
398.147	557
398.371	556
398.595	546
398.82	544
399.044	558
399.268	583
399.492	610
399.717	651
399.941	694
400.165	703
400.389	715
400.613	654
400.837	589
401.062	609
401.286	582
401.51	585
401.734	557
401.958	569
402.182	580
402.406	557
402.63	582
402.854	580
403.078	597
403.302	593
403.526	599
403.75	600
403.974	585
404.198	588
404.422	598
404.645	588
404.869	609
405.093	636
405.317	692
405.541	715
405.765	658
405.988	601
406.212	632
406.436	652
406.66	660
406.883	626
407.107	676
407.331	700
407.555	785
407.778	788
408.002	707
408.226	673
408.449	643
408.673	644
408.896	675
409.12	728
409.344	665
409.567	627
409.791	617
410.014	620
410.238	605
410.461	595
410.685	597
410.908	658
411.132	663
411.355	665
411.578	669
411.802	592
412.025	590
412.249	630
412.472	618
412.695	659
412.919	642
413.142	600
413.365	588
413.589	572
413.812	589
414.035	564
414.258	577
414.482	574
414.705	588
414.928	564
415.151	562
415.374	570
415.597	565
415.821	548
416.044	573
416.267	542
416.49	557
416.713	562
416.936	571
417.159	560
417.382	543
417.605	572
417.828	600
418.051	612
418.274	543
418.497	555
418.72	579
418.943	547
419.166	576
419.389	605
419.611	620
419.834	607
420.057	624
420.28	612
420.503	590
420.726	588
420.948	589
421.171	628
421.394	685
421.617	589
421.839	574
422.062	593
422.285	593
422.507	674
422.73	732
422.953	709
423.175	618
423.398	614
423.621	595
423.843	634
424.066	635
424.288	613
424.511	640
424.733	692
424.956	793
425.178	738
425.401	730
425.623	765
425.846	653
426.068	620
426.291	614
426.513	621
426.735	621
426.958	658
427.18	730
427.402	896
427.625	964
427.847	864
428.069	748
428.292	668
428.514	601
428.736	572
428.958	602
429.181	572
429.403	560
429.625	582
429.847	625
430.069	682
430.292	683
430.514	593
430.736	560
430.958	572
431.18	583
431.402	564
431.624	536
431.846	545
432.068	553
432.29	542
432.512	566
432.734	561
432.956	545
433.178	560
433.4	567
433.622	569
433.844	541
434.066	561
434.287	535
434.509	544
434.731	564
434.953	588
435.175	594
435.397	616
435.618	616
435.84	666
436.062	786
436.284	827
436.505	686
436.727	633
436.949	624
437.17	597
437.392	581
437.614	611
437.835	596
438.057	699
438.278	802
438.5	820
438.721	889
438.943	861
439.165	687
439.386	631
439.608	626
439.829	614
440.05	642
440.272	688
440.493	680
440.715	633
440.936	594
441.158	584
441.379	589
441.6	613
441.822	635
442.043	663
442.264	736
442.486	784
442.707	674
442.928	623
443.149	668
443.371	673
443.592	705
443.813	794
444.034	864
444.255	748
444.476	644
444.698	644
444.919	649
445.14	736
445.361	697
445.582	677
445.803	736
446.024	813
446.245	858
446.466	778
446.687	654
446.908	619
447.129	566
447.35	588
447.571	566
447.792	569
448.013	579
448.234	584
448.455	661
448.675	752
448.896	873
449.117	738
449.338	704
449.559	802
449.779	915
450	754
450.221	617
450.442	575
450.662	547
450.883	567
451.104	560
451.324	567
451.545	531
451.766	518
451.986	497
452.207	491
452.428	502
452.648	492
452.869	530
453.089	540
453.31	519
453.53	522
453.751	498
453.971	506
454.192	528
454.412	534
454.633	523
454.853	503
455.073	477
455.294	519
455.514	595
455.734	573
455.955	519
456.175	474
456.395	492
456.616	489
456.836	479
457.056	467
457.276	487
457.497	499
457.717	478
457.937	489
458.157	501
458.377	520
458.598	538
458.818	582
459.038	650
459.258	688
459.478	588
459.698	548
459.918	562
460.138	535
460.358	554
460.578	570
460.798	558
461.018	580
461.238	560
461.458	572
461.678	554
461.898	576
462.118	577
462.338	588
462.558	605
462.777	608
462.997	620
463.217	650
463.437	632
463.657	636
463.876	620
464.096	633
464.316	621
464.536	605
464.755	583
464.975	640
465.195	651
465.414	694
465.634	630
465.854	583
466.073	571
466.293	549
466.512	546
466.732	541
466.951	527
467.171	540
467.391	550
467.61	573
467.829	544
468.049	545
468.268	544
468.488	534
468.707	524
468.927	510
469.146	514
469.365	514
469.585	504
469.804	530
470.023	539
470.243	536
470.462	547
470.681	559
470.901	562
471.12	541
471.339	533
471.558	546
471.777	544
471.997	511
472.216	522
472.435	575
472.654	546
472.873	542
473.092	537
473.311	518
473.53	543
473.749	528
473.968	564
474.187	666
474.406	694
474.625	606
474.844	550
475.063	536
475.282	521
475.501	554
475.72	544
475.939	554
476.158	543
476.377	565
476.596	570
476.814	571
477.033	568
477.252	564
477.471	569
477.69	562
477.908	580
478.127	595
478.346	594
478.564	599
478.783	603
479.002	625
479.22	631
479.439	654
479.658	667
479.876	640
480.095	665
480.313	671
480.532	687
480.751	674
480.969	666
481.188	725
481.406	761
481.624	679
481.843	668
482.061	638
482.28	642
482.498	647
482.717	610
482.935	625
483.153	612
483.372	629
483.59	622
483.808	609
484.027	643
484.245	625
484.463	619
484.681	644
484.9	636
485.118	653
485.336	655
485.554	655
485.772	668
485.99	648
486.209	643
486.427	662
486.645	667
486.863	675
487.081	681
487.299	685
487.517	672
487.735	669
487.953	669
488.171	679
488.389	678
488.607	689
488.825	674
489.043	673
489.261	674
489.479	701
489.696	664
489.914	680
490.132	708
490.35	715
490.568	674
490.786	714
491.003	721
491.221	752
491.439	730
491.657	736
491.874	762
492.092	749
492.31	763
492.527	759
492.745	744
492.963	772
493.18	774
493.398	775
493.615	800
493.833	820
494.05	807
494.268	780
494.485	784
494.703	798
494.92	801
495.138	778
495.355	795
495.573	774
495.79	809
496.008	795
496.225	806
496.442	816
496.66	820
496.877	820
497.094	816
497.312	818
497.529	821
497.746	852
497.963	834
498.181	892
498.398	894
498.615	904
498.832	934
499.049	930
499.267	988
499.484	1005
499.701	1091
499.918	1099
500.135	1178
500.352	1220
500.569	1232
500.786	1240
501.003	1247
501.22	1161
501.437	1110
501.654	1086
501.871	1086
502.088	1017
502.305	980
502.522	960
502.739	890
502.956	885
503.172	865
503.389	844
503.606	861
503.823	840
504.04	838
504.256	834
504.473	825
504.69	833
504.907	842
505.123	800
505.34	770
505.557	762
505.773	755
505.99	776
506.207	757
506.423	756
506.64	745
506.856	770
507.073	764
507.289	728
507.506	723
507.722	744
507.939	747
508.155	711
508.372	716
508.588	710
508.805	712
509.021	719
509.238	734
509.454	708
509.67	716
509.887	701
510.103	689
510.319	701
510.536	821
510.752	1324
510.968	1072
511.184	722
511.401	684
511.617	681
511.833	677
512.049	674
512.265	683
512.481	664
512.698	645
512.914	666
513.13	661
513.346	666
513.562	666
513.778	652
513.994	671
514.21	685
514.426	720
514.642	750
514.858	765
515.074	796
515.29	945
515.506	1396
515.721	1157
515.937	842
516.153	768
516.369	725
516.585	717
516.801	719
517.016	725
517.232	730
517.448	737
517.664	748
517.879	738
518.095	734
518.311	726
518.527	693
518.742	720
518.958	712
519.173	709
519.389	674
519.605	680
519.82	679
520.036	698
520.251	731
520.467	754
520.682	719
520.898	702
521.113	743
521.329	793
521.544	873
521.76	1098
521.975	1737
522.19	1772
522.406	979
522.621	762
522.836	690
523.052	685
523.267	636
523.482	643
523.698	615
523.913	604
524.128	593
524.343	601
524.559	612
524.774	577
524.989	580
525.204	582
525.419	597
525.634	589
525.849	587
526.064	588
526.28	585
526.495	562
526.71	551
526.925	553
527.14	566
527.355	555
527.57	571
527.785	570
527.999	549
528.214	552
528.429	566
528.644	565
528.859	564
529.074	557
529.289	586
529.503	680
529.718	647
529.933	582
530.148	577
530.363	561
530.577	570
530.792	564
531.007	569
531.221	539
531.436	533
531.651	545
531.865	537
532.08	557
532.295	541
532.509	529
532.724	535
532.938	554
533.153	532
533.367	536
533.582	546
533.796	532
534.011	549
534.225	539
534.44	535
534.654	549
534.868	518
535.083	518
535.297	533
535.511	528
535.726	561
535.94	550
536.154	535
536.369	532
536.583	518
536.797	525
537.011	520
537.225	542
537.44	523
537.654	527
537.868	506
538.082	497
538.296	522
538.51	496
538.724	542
538.938	508
539.153	515
539.367	519
539.581	517
539.795	518
540.009	537
540.222	513
540.436	513
540.65	537
540.864	502
541.078	522
541.292	518
541.506	517
541.72	513
541.934	502
542.147	517
542.361	501
542.575	518
542.789	482
543.002	493
543.216	511
543.43	496
543.644	504
543.857	512
544.071	500
544.285	492
544.498	488
544.712	502
544.925	517
545.139	506
545.352	520
545.566	502
545.779	485
545.993	520
546.206	502
546.42	506
546.633	516
546.847	524
547.06	499
547.274	486
547.487	514
547.7	497
547.914	486
548.127	506
548.34	508
548.554	518
548.767	498
548.98	498
549.193	502
549.407	504
549.62	484
549.833	514
550.046	501
550.259	475
550.473	476
550.686	499
550.899	491
551.112	501
551.325	513
551.538	493
551.751	501
551.964	487
552.177	482
552.39	484
552.603	503
552.816	518
553.029	509
553.242	527
553.455	521
553.667	516
553.88	508
554.093	504
554.306	506
554.519	499
554.732	485
554.944	473
555.157	503
555.37	479
555.583	486
555.795	473
556.008	467
556.221	455
556.433	456
556.646	478
556.859	462
557.071	441
557.284	459
557.496	448
557.709	457
557.921	460
558.134	438
558.346	433
558.559	450
558.771	445
558.984	455
559.196	450
559.409	422
559.621	424
559.833	428
560.046	419
560.258	452
560.47	427
560.683	407
560.895	431
561.107	458
561.32	429
561.532	444
561.744	441
561.956	443
562.168	428
562.381	445
562.593	440
562.805	449
563.017	436
563.229	437
563.441	453
563.653	454
563.865	449
564.077	437
564.289	441
564.501	456
564.713	462
564.925	483
565.137	497
565.349	479
565.561	467
565.773	507
565.985	506
566.197	522
566.408	522
566.62	538
566.832	566
567.044	552
567.255	568
567.467	590
567.679	601
567.891	605
568.102	605
568.314	571
568.526	568
568.737	518
568.949	509
569.161	480
569.372	479
569.584	481
569.795	457
570.007	472
570.218	500
570.43	465
570.641	442
570.853	443
571.064	429
571.276	443
571.487	413
571.698	405
571.91	418
572.121	392
572.333	418
572.544	396
572.755	410
572.966	366
573.178	398
573.389	397
573.6	408
573.811	380
574.023	394
574.234	405
574.445	386
574.656	386
574.867	382
575.078	380
575.289	376
575.501	386
575.712	382
575.923	380
576.134	361
576.345	374
576.556	371
576.767	371
576.978	389
577.188	376
577.399	353
577.61	363
577.821	355
578.032	352
578.243	401
578.454	624
578.665	488
578.875	368
579.086	371
579.297	350
579.508	354
579.718	355
579.929	330
580.14	344
580.35	316
580.561	351
580.772	329
580.982	348
581.193	330
581.403	348
581.614	364
581.825	323
582.035	343
582.246	330
582.456	331
582.667	329
582.877	339
583.087	331
583.298	347
583.508	324
583.719	342
583.929	334
584.139	330
584.35	322
584.56	351
584.77	345
584.981	355
585.191	353
585.401	338
585.611	334
585.821	324
586.032	327
586.242	328
586.452	330
586.662	338
586.872	345
587.082	334
587.292	328
587.502	327
587.713	313
587.923	314
588.133	326
588.343	316
588.553	318
588.762	334
588.972	347
589.182	330
589.392	322
589.602	318
589.812	329
590.022	329
590.232	331
590.441	341
590.651	323
590.861	330
591.071	323
591.281	336
591.49	326
591.7	332
591.91	347
592.119	329
592.329	338
592.539	344
592.748	374
592.958	350
593.167	376
593.377	362
593.587	362
593.796	361
594.006	348
594.215	359
594.424	351
594.634	360
594.843	349
595.053	335
595.262	348
595.472	317
595.681	333
595.89	325
596.1	321
596.309	333
596.518	328
596.727	327
596.937	309
597.146	330
597.355	310
597.564	305
597.774	315
597.983	298
598.192	293
598.401	313
598.61	313
598.819	285
599.028	277
599.237	279
599.446	283
599.655	284
599.864	298
600.073	300
600.282	297
600.491	287
600.7	271
600.909	295
601.118	290
601.327	273
601.536	287
601.745	295
601.953	292
602.162	285
602.371	293
602.58	268
602.789	266
602.997	281
603.206	272
603.415	259
603.623	269
603.832	279
604.041	268
604.249	258
604.458	267
604.666	268
604.875	267
605.084	259
605.292	267
605.501	256
605.709	274
605.918	265
606.126	263
606.334	273
606.543	271
606.751	278
606.96	245
607.168	283
607.376	268
607.585	263
607.793	271
608.001	274
608.21	261
608.418	264
608.626	277
608.834	276
609.043	278
609.251	246
609.459	246
609.667	267
609.875	263
610.083	252
610.291	237
610.499	263
610.707	268
610.916	269
611.124	269
611.332	260
611.54	273
611.748	284
611.955	273
612.163	262
612.371	260
612.579	275
612.787	258
612.995	267
613.203	256
613.411	248
613.618	246
613.826	262
614.034	235
614.242	266
614.449	255
614.657	254
614.865	242
615.072	277
615.28	237
615.488	264
615.695	246
615.903	254
616.111	264
616.318	264
616.526	260
616.733	277
616.941	258
617.148	266
617.356	256
617.563	257
617.771	244
617.978	256
618.185	248
618.393	250
618.6	268
618.807	261
619.015	264
619.222	245
619.429	262
619.637	254
619.844	254
620.051	249
620.258	246
620.466	257
620.673	228
620.88	237
621.087	238
621.294	235
621.501	231
621.708	241
621.915	241
622.122	250
622.329	257
622.536	231
622.743	253
622.95	236
623.157	221
623.364	226
623.571	240
623.778	237
623.985	233
624.192	235
624.399	230
624.606	229
624.812	232
625.019	238
625.226	244
625.433	233
625.639	220
625.846	230
626.053	230
626.259	227
626.466	238
626.673	229
626.879	212
627.086	222
627.293	217
627.499	234
627.706	224
627.912	212
628.119	210
628.325	224
628.532	219
628.738	194
628.945	205
629.151	217
629.357	222
629.564	209
629.77	214
629.976	195
630.183	208
630.389	199
630.595	209
630.802	208
631.008	211
631.214	220
631.42	204
631.627	199
631.833	198
632.039	205
632.245	211
632.451	199
632.657	188
632.863	215
633.069	220
633.275	184
633.481	186
633.688	193
633.893	178
634.099	196
634.305	218
634.511	205
634.717	185
634.923	188
635.129	214
635.335	192
635.541	184
635.747	203
635.952	204
636.158	202
636.364	206
636.57	190
636.775	203
636.981	193
637.187	190
637.392	175
637.598	192
637.804	193
638.009	180
638.215	189
638.421	188
638.626	188
638.832	186
639.037	178
639.243	192
639.448	189
639.654	182
639.859	180
640.065	179
640.27	195
640.475	164
640.681	191
640.886	177
641.091	187
641.297	188
641.502	169
641.707	176
641.913	190
642.118	178
642.323	179
642.528	186
642.733	188
642.939	174
643.144	193
643.349	181
643.554	176
643.759	180
643.964	179
644.169	176
644.374	188
644.579	168
644.784	178
644.989	196
645.194	190
645.399	166
645.604	169
645.809	187
646.014	187
646.219	188
646.423	167
646.628	177
646.833	178
647.038	171
647.243	192
647.447	182
647.652	171
647.857	168
648.062	174
648.266	169
648.471	194
648.676	192
648.88	177
649.085	176
649.289	169
649.494	182
649.698	198
649.903	208
650.107	191
650.312	195
650.516	185
650.721	170
650.925	171
651.13	174
651.334	173
651.539	149
651.743	161
651.947	126
652.152	167
652.356	160
652.56	162
652.764	145
652.969	153
653.173	154
653.377	132
653.581	140
653.785	155
653.99	144
654.194	145
654.398	139
654.602	158
654.806	146
655.01	144
655.214	155
655.418	149
655.622	152
655.826	125
656.03	128
656.234	132
656.438	148
656.642	146
656.846	132
657.049	133
657.253	120
657.457	126
657.661	125
657.865	121
658.068	109
658.272	122
658.476	118
658.68	123
658.883	112
659.087	104
659.291	104
659.494	101
659.698	97
659.901	96
660.105	93
660.309	99
660.512	100
660.716	106
660.919	89
661.123	102
661.326	93
661.53	90
661.733	87
661.936	87
662.14	85
662.343	97
662.546	90
662.75	94
662.953	100
663.156	90
663.36	90
663.563	81
663.766	72
663.969	77
664.173	75
664.376	86
664.579	80
664.782	89
664.985	83
665.188	92
665.391	88
665.594	93
665.797	77
666	85
666.203	91
666.406	84
666.609	95
666.812	91
667.015	96
667.218	88
667.421	87
667.624	96
667.827	75
668.03	75
668.232	89
668.435	72
668.638	73
668.841	91
669.043	84
669.246	85
669.449	93
669.651	100
669.854	83
670.057	79
670.259	87
670.462	89
670.665	77
670.867	86
671.07	90
671.272	82
671.475	83
671.677	90
671.88	83
672.082	84
672.284	91
672.487	78
672.689	83
672.892	87
