Data from 1979.PennyLincolnUp.Lamp.En5.5.200Scan.071719.P1_HRD10591_16-19-48-863.txt Node
Date: Thu Jul 18 16:19:48 EDT 2019
User: cochatt
Spectrometer: HR+D1059
Trigger mode: 1
Integration Time (sec): 1.000000E-1
Scans to average: 1
Electric dark correction enabled: true
Nonlinearity correction enabled: false
Boxcar width: 0
XAxis mode: Wavelengths
Number of Pixels in Spectrum: 2048
>>>>>Begin Spectral Data<<<<<
223.165	-25
223.4	-25
223.635	-25
223.869	-4
224.104	-8
224.338	-5
224.573	-22
224.808	-27
225.042	6
225.277	-13
225.511	-5
225.746	8
225.98	2
226.215	0
226.449	19
226.683	34
226.918	19
227.152	21
227.387	34
227.621	35
227.856	48
228.09	45
228.324	63
228.559	58
228.793	54
229.027	95
229.262	94
229.496	109
229.73	132
229.964	155
230.199	127
230.433	119
230.667	113
230.901	105
231.136	104
231.37	122
231.604	110
231.838	114
232.072	104
232.306	112
232.541	100
232.775	112
233.009	105
233.243	112
233.477	110
233.711	125
233.945	131
234.179	101
234.413	126
234.647	119
234.881	122
235.115	113
235.349	115
235.583	115
235.817	124
236.051	127
236.285	126
236.519	120
236.753	123
236.987	143
237.221	173
237.455	202
237.689	177
237.922	141
238.156	123
238.39	122
238.624	122
238.858	137
239.091	100
239.325	123
239.559	124
239.793	118
240.027	127
240.26	138
240.494	149
240.728	163
240.961	133
241.195	146
241.429	143
241.662	131
241.896	134
242.13	114
242.363	129
242.597	127
242.83	135
243.064	131
243.298	142
243.531	129
243.765	149
243.998	142
244.232	143
244.465	129
244.699	150
244.932	143
245.166	141
245.399	141
245.633	148
245.866	150
246.099	146
246.333	145
246.566	165
246.8	153
247.033	143
247.266	147
247.5	152
247.733	167
247.966	155
248.2	153
248.433	156
248.666	165
248.899	173
249.133	189
249.366	198
249.599	190
249.832	179
250.066	173
250.299	167
250.532	197
250.765	192
250.998	213
251.231	210
251.465	201
251.698	197
251.931	185
252.164	186
252.397	179
252.63	196
252.863	202
253.096	225
253.329	218
253.562	217
253.795	218
254.028	218
254.261	188
254.494	219
254.727	227
254.96	265
255.193	252
255.426	215
255.659	221
255.892	241
256.124	228
256.357	228
256.59	225
256.823	198
257.056	203
257.289	204
257.521	220
257.754	210
257.987	219
258.22	192
258.452	203
258.685	195
258.918	200
259.151	197
259.383	203
259.616	197
259.849	229
260.081	229
260.314	246
260.547	244
260.779	248
261.012	226
261.244	229
261.477	206
261.71	216
261.942	219
262.175	225
262.407	221
262.64	190
262.872	206
263.105	206
263.337	201
263.57	211
263.802	220
264.035	216
264.267	206
264.499	203
264.732	206
264.964	214
265.197	216
265.429	207
265.661	222
265.894	203
266.126	213
266.358	213
266.591	217
266.823	229
267.055	206
267.287	216
267.52	211
267.752	214
267.984	227
268.216	222
268.448	227
268.681	238
268.913	239
269.145	244
269.377	264
269.609	271
269.841	235
270.073	252
270.306	276
270.538	297
270.77	293
271.002	259
271.234	275
271.466	252
271.698	294
271.93	276
272.162	291
272.394	285
272.626	277
272.858	276
273.09	259
273.322	263
273.553	249
273.785	264
274.017	257
274.249	237
274.481	249
274.713	245
274.945	265
275.176	261
275.408	250
275.64	259
275.872	269
276.104	262
276.335	283
276.567	267
276.799	302
277.031	293
277.262	299
277.494	285
277.726	287
277.957	273
278.189	257
278.421	270
278.652	257
278.884	282
279.115	261
279.347	265
279.579	244
279.81	264
280.042	275
280.273	264
280.505	259
280.736	263
280.968	275
281.199	267
281.431	261
281.662	250
281.894	250
282.125	245
282.356	270
282.588	290
282.819	301
283.051	277
283.282	271
283.513	277
283.745	284
283.976	291
284.207	270
284.439	271
284.67	282
284.901	284
285.132	278
285.364	271
285.595	275
285.826	264
286.057	267
286.288	283
286.52	284
286.751	278
286.982	294
287.213	280
287.444	292
287.675	280
287.906	284
288.138	317
288.369	310
288.6	299
288.831	291
289.062	300
289.293	285
289.524	268
289.755	283
289.986	294
290.217	312
290.448	295
290.679	291
290.91	282
291.141	295
291.371	298
291.602	295
291.833	287
292.064	277
292.295	308
292.526	290
292.757	298
292.987	312
293.218	280
293.449	289
293.68	309
293.91	276
294.141	283
294.372	278
294.603	307
294.833	298
295.064	293
295.295	319
295.525	296
295.756	302
295.987	323
296.217	334
296.448	341
296.679	328
296.909	304
297.14	289
297.37	299
297.601	306
297.831	316
298.062	301
298.292	307
298.523	317
298.753	333
298.984	302
299.214	321
299.445	326
299.675	314
299.905	321
300.136	309
300.366	312
300.597	315
300.827	313
301.057	316
301.288	317
301.518	317
301.748	321
301.979	335
302.209	341
302.439	333
302.669	356
302.9	323
303.13	317
303.36	331
303.59	327
303.82	332
304.051	334
304.281	335
304.511	321
304.741	312
304.971	339
305.201	343
305.431	334
305.661	318
305.891	336
306.121	324
306.352	345
306.582	328
306.812	338
307.042	330
307.272	325
307.502	330
307.731	325
307.961	357
308.191	339
308.421	337
308.651	341
308.881	331
309.111	338
309.341	333
309.571	336
309.8	365
310.03	376
310.26	375
310.49	374
310.72	376
310.949	383
311.179	398
311.409	368
311.639	363
311.868	364
312.098	364
312.328	386
312.557	385
312.787	387
313.017	393
313.246	379
313.476	385
313.706	389
313.935	388
314.165	405
314.394	381
314.624	388
314.853	390
315.083	389
315.312	374
315.542	403
315.771	378
316.001	363
316.23	361
316.46	344
316.689	382
316.919	369
317.148	367
317.377	371
317.607	390
317.836	394
318.065	387
318.295	398
318.524	364
318.753	373
318.983	382
319.212	362
319.441	393
319.67	357
319.9	389
320.129	373
320.358	377
320.587	371
320.816	383
321.046	395
321.275	397
321.504	388
321.733	407
321.962	402
322.191	429
322.42	424
322.649	436
322.878	454
323.108	458
323.337	460
323.566	500
323.795	523
324.024	552
324.253	648
324.482	884
324.71	1405
324.939	2097
325.168	1771
325.397	887
325.626	580
325.855	519
326.084	513
326.313	497
326.542	491
326.77	518
326.999	627
327.228	867
327.457	1294
327.686	1595
327.914	1009
328.143	653
328.372	605
328.6	549
328.829	541
329.058	547
329.287	576
329.515	519
329.744	506
329.972	495
330.201	535
330.43	554
330.658	574
330.887	603
331.115	572
331.344	518
331.572	474
331.801	479
332.03	500
332.258	494
332.486	460
332.715	471
332.943	451
333.172	466
333.4	475
333.629	484
333.857	483
334.085	516
334.314	525
334.542	558
334.771	552
334.999	536
335.227	483
335.455	477
335.684	451
335.912	446
336.14	474
336.369	466
336.597	474
336.825	474
337.053	447
337.281	450
337.51	460
337.738	452
337.966	459
338.194	460
338.422	456
338.65	446
338.878	450
339.106	450
339.334	435
339.562	437
339.79	435
340.018	449
340.246	424
340.474	456
340.702	435
340.93	432
341.158	426
341.386	437
341.614	451
341.842	440
342.07	418
342.298	432
342.526	421
342.754	422
342.981	409
343.209	420
343.437	446
343.665	411
343.893	462
344.12	459
344.348	455
344.576	439
344.804	438
345.031	447
345.259	464
345.487	452
345.714	439
345.942	439
346.17	394
346.397	419
346.625	415
346.853	413
347.08	415
347.308	437
347.535	440
347.763	438
347.99	437
348.218	436
348.445	435
348.673	438
348.9	428
349.128	429
349.355	412
349.583	413
349.81	420
350.037	409
350.265	430
350.492	411
350.72	406
350.947	427
351.174	439
351.402	422
351.629	435
351.856	443
352.083	407
352.311	460
352.538	432
352.765	434
352.992	430
353.22	433
353.447	419
353.674	413
353.901	389
354.128	433
354.355	398
354.583	404
354.81	403
355.037	430
355.264	392
355.491	413
355.718	405
355.945	398
356.172	405
356.399	418
356.626	407
356.853	400
357.08	398
357.307	392
357.534	409
357.761	399
357.988	394
358.215	404
358.441	411
358.668	410
358.895	436
359.122	413
359.349	401
359.576	443
359.802	433
360.029	462
360.256	480
360.483	451
360.709	440
360.936	426
361.163	424
361.39	426
361.616	431
361.843	423
362.07	423
362.296	444
362.523	446
362.749	419
362.976	419
363.203	406
363.429	416
363.656	410
363.882	439
364.109	420
364.335	403
364.562	427
364.788	402
365.015	426
365.241	423
365.468	402
365.694	416
365.92	433
366.147	413
366.373	397
366.599	414
366.826	414
367.052	414
367.278	418
367.505	395
367.731	417
367.957	409
368.184	422
368.41	423
368.636	426
368.862	431
369.089	436
369.315	403
369.541	414
369.767	426
369.993	421
370.219	435
370.445	420
370.672	436
370.898	401
371.124	425
371.35	437
371.576	428
371.802	419
372.028	415
372.254	424
372.48	418
372.706	423
372.932	417
373.158	425
373.384	424
373.61	413
373.835	407
374.061	414
374.287	437
374.513	413
374.739	439
374.965	435
375.191	435
375.416	435
375.642	422
375.868	415
376.094	424
376.319	435
376.545	433
376.771	438
376.997	433
377.222	421
377.448	403
377.674	410
377.899	410
378.125	422
378.35	388
378.576	423
378.802	409
379.027	419
379.253	427
379.478	428
379.704	415
379.929	420
380.155	413
380.38	420
380.606	433
380.831	421
381.057	434
381.282	442
381.507	420
381.733	417
381.958	431
382.184	447
382.409	424
382.634	451
382.86	438
383.085	449
383.31	435
383.535	451
383.761	435
383.986	467
384.211	432
384.436	421
384.662	441
384.887	470
385.112	443
385.337	458
385.562	474
385.787	452
386.013	479
386.238	483
386.463	490
386.688	471
386.913	458
387.138	480
387.363	467
387.588	488
387.813	466
388.038	482
388.263	477
388.488	460
388.713	467
388.938	474
389.163	458
389.387	471
389.612	457
389.837	467
390.062	479
390.287	475
390.512	483
390.736	469
390.961	469
391.186	477
391.411	491
391.636	479
391.86	482
392.085	515
392.31	513
392.534	491
392.759	502
392.984	498
393.208	468
393.433	477
393.658	498
393.882	483
394.107	479
394.331	491
394.556	485
394.78	475
395.005	491
395.229	498
395.454	505
395.678	503
395.903	501
396.127	523
396.352	532
396.576	493
396.801	519
397.025	509
397.249	523
397.474	513
397.698	531
397.922	533
398.147	561
398.371	576
398.595	530
398.82	551
399.044	579
399.268	601
399.492	622
399.717	675
399.941	671
400.165	701
400.389	690
400.613	656
400.837	600
401.062	583
401.286	575
401.51	581
401.734	566
401.958	578
402.182	583
402.406	595
402.63	583
402.854	574
403.078	574
403.302	587
403.526	594
403.75	594
403.974	577
404.198	600
404.422	611
404.645	599
404.869	619
405.093	637
405.317	677
405.541	683
405.765	660
405.988	609
406.212	600
406.436	614
406.66	667
406.883	635
407.107	635
407.331	704
407.555	779
407.778	785
408.002	709
408.226	669
408.449	658
408.673	648
408.896	706
409.12	736
409.344	681
409.567	633
409.791	612
410.014	611
410.238	606
410.461	599
410.685	628
410.908	604
411.132	639
411.355	675
411.578	662
411.802	594
412.025	599
412.249	599
412.472	638
412.695	673
412.919	629
413.142	617
413.365	593
413.589	573
413.812	574
414.035	575
414.258	583
414.482	583
414.705	580
414.928	556
415.151	538
415.374	574
415.597	564
415.821	558
416.044	575
416.267	536
416.49	563
416.713	579
416.936	567
417.159	569
417.382	552
417.605	551
417.828	577
418.051	595
418.274	587
418.497	576
418.72	567
418.943	573
419.166	584
419.389	615
419.611	617
419.834	582
420.057	619
420.28	592
420.503	586
420.726	591
420.948	586
421.171	636
421.394	655
421.617	617
421.839	553
422.062	600
422.285	576
422.507	643
422.73	711
422.953	731
423.175	651
423.398	595
423.621	592
423.843	629
424.066	637
424.288	635
424.511	628
424.733	681
424.956	778
425.178	717
425.401	747
425.623	745
425.846	669
426.068	621
426.291	592
426.513	628
426.735	614
426.958	653
427.18	719
427.402	863
427.625	970
427.847	823
428.069	706
428.292	670
428.514	613
428.736	588
428.958	596
429.181	578
429.403	567
429.625	607
429.847	598
430.069	667
430.292	683
430.514	610
430.736	580
430.958	581
431.18	565
431.402	524
431.624	559
431.846	555
432.068	551
432.29	550
432.512	543
432.734	548
432.956	550
433.178	532
433.4	573
433.622	553
433.844	542
434.066	544
434.287	531
434.509	562
434.731	548
434.953	578
435.175	593
435.397	625
435.618	589
435.84	648
436.062	755
436.284	793
436.505	674
436.727	627
436.949	606
437.17	584
437.392	571
437.614	563
437.835	606
438.057	705
438.278	787
438.5	769
438.721	904
438.943	843
439.165	647
439.386	618
439.608	604
439.829	620
440.05	622
440.272	689
440.493	679
440.715	599
440.936	604
441.158	591
441.379	572
441.6	581
441.822	607
442.043	652
442.264	730
442.486	757
442.707	675
442.928	653
443.149	625
443.371	651
443.592	691
443.813	807
444.034	839
444.255	705
444.476	653
444.698	644
444.919	659
445.14	733
445.361	667
445.582	663
445.803	717
446.024	799
446.245	811
446.466	770
446.687	675
446.908	602
447.129	596
447.35	568
447.571	571
447.792	549
448.013	561
448.234	587
448.455	648
448.675	728
448.896	857
449.117	739
449.338	698
449.559	802
449.779	898
450	723
450.221	618
450.442	562
450.662	553
450.883	561
451.104	566
451.324	565
451.545	536
451.766	542
451.986	526
452.207	525
452.428	498
452.648	501
452.869	516
453.089	511
453.31	525
453.53	508
453.751	519
453.971	517
454.192	539
454.412	530
454.633	508
454.853	528
455.073	495
455.294	541
455.514	582
455.734	561
455.955	517
456.175	479
456.395	474
456.616	490
456.836	493
457.056	467
457.276	458
457.497	469
457.717	478
457.937	496
458.157	487
458.377	494
458.598	518
458.818	578
459.038	661
459.258	697
459.478	597
459.698	550
459.918	561
460.138	569
460.358	584
460.578	564
460.798	571
461.018	570
461.238	586
461.458	598
461.678	566
461.898	555
462.118	573
462.338	590
462.558	593
462.777	624
462.997	618
463.217	663
463.437	643
463.657	609
463.876	613
464.096	638
464.316	621
464.536	607
464.755	605
464.975	621
465.195	647
465.414	721
465.634	636
465.854	595
466.073	544
466.293	554
466.512	539
466.732	535
466.951	530
467.171	527
467.391	539
467.61	543
467.829	568
468.049	553
468.268	536
468.488	521
468.707	507
468.927	519
469.146	495
469.365	515
469.585	519
469.804	545
470.023	526
470.243	528
470.462	543
470.681	552
470.901	535
471.12	539
471.339	522
471.558	525
471.777	517
471.997	550
472.216	541
472.435	583
472.654	553
472.873	539
473.092	541
473.311	528
473.53	490
473.749	545
473.968	578
474.187	673
474.406	699
474.625	581
474.844	557
475.063	537
475.282	533
475.501	550
475.72	545
475.939	559
476.158	553
476.377	545
476.596	548
476.814	539
477.033	574
477.252	585
477.471	564
477.69	568
477.908	566
478.127	626
478.346	594
478.564	596
478.783	604
479.002	619
479.22	615
479.439	650
479.658	633
479.876	629
480.095	673
480.313	692
480.532	667
480.751	659
480.969	671
481.188	705
481.406	749
481.624	674
481.843	670
482.061	622
482.28	635
482.498	623
482.717	632
482.935	627
483.153	619
483.372	645
483.59	630
483.808	653
484.027	636
484.245	651
484.463	646
484.681	653
484.9	648
485.118	657
485.336	630
485.554	634
485.772	649
485.99	648
486.209	641
486.427	684
486.645	653
486.863	677
487.081	666
487.299	675
487.517	684
487.735	677
487.953	685
488.171	686
488.389	673
488.607	661
488.825	675
489.043	684
489.261	676
489.479	685
489.696	667
489.914	699
490.132	694
490.35	688
490.568	709
490.786	700
491.003	716
491.221	721
491.439	745
491.657	741
491.874	755
492.092	767
492.31	771
492.527	754
492.745	758
492.963	768
493.18	777
493.398	774
493.615	790
493.833	785
494.05	777
494.268	767
494.485	790
494.703	773
494.92	783
495.138	778
495.355	780
495.573	791
495.79	825
496.008	796
496.225	802
496.442	768
496.66	775
496.877	813
497.094	776
497.312	806
497.529	809
497.746	841
497.963	859
498.181	888
498.398	899
498.615	917
498.832	939
499.049	967
499.267	1001
499.484	994
499.701	1060
499.918	1075
500.135	1188
500.352	1234
500.569	1258
500.786	1268
501.003	1246
501.22	1187
501.437	1137
501.654	1117
501.871	1077
502.088	1009
502.305	969
502.522	922
502.739	922
502.956	877
503.172	861
503.389	851
503.606	848
503.823	849
504.04	802
504.256	820
504.473	824
504.69	818
504.907	814
505.123	777
505.34	805
505.557	775
505.773	774
505.99	753
506.207	759
506.423	768
506.64	772
506.856	730
507.073	737
507.289	750
507.506	730
507.722	727
507.939	757
508.155	742
508.372	694
508.588	698
508.805	680
509.021	693
509.238	706
509.454	689
509.67	717
509.887	706
510.103	699
510.319	725
510.536	784
510.752	1340
510.968	1085
511.184	740
511.401	679
511.617	692
511.833	675
512.049	694
512.265	671
512.481	671
512.698	668
512.914	668
513.13	666
513.346	659
513.562	635
513.778	643
513.994	670
514.21	663
514.426	697
514.642	729
514.858	735
515.074	797
515.29	933
515.506	1354
515.721	1135
515.937	806
516.153	727
516.369	718
516.585	721
516.801	713
517.016	725
517.232	731
517.448	733
517.664	731
517.879	725
518.095	740
518.311	752
518.527	726
518.742	707
518.958	703
519.173	691
519.389	683
519.605	684
519.82	689
520.036	701
520.251	699
520.467	697
520.682	733
520.898	727
521.113	724
521.329	762
521.544	851
521.76	1053
521.975	1711
522.19	1692
522.406	953
522.621	748
522.836	673
523.052	653
523.267	633
523.482	643
523.698	631
523.913	623
524.128	619
524.343	607
524.559	602
524.774	624
524.989	592
525.204	585
525.419	611
525.634	600
525.849	579
526.064	565
526.28	585
526.495	571
526.71	591
526.925	571
527.14	570
527.355	562
527.57	557
527.785	542
527.999	528
528.214	566
528.429	568
528.644	563
528.859	535
529.074	573
529.289	551
529.503	673
529.718	632
529.933	603
530.148	591
530.363	582
530.577	582
530.792	586
531.007	565
531.221	548
531.436	549
531.651	552
531.865	563
532.08	521
532.295	562
532.509	537
532.724	537
532.938	562
533.153	524
533.367	551
533.582	554
533.796	554
534.011	546
534.225	533
534.44	534
534.654	548
534.868	538
535.083	544
535.297	523
535.511	526
535.726	543
535.94	531
536.154	546
536.369	545
536.583	545
536.797	532
537.011	503
537.225	516
537.44	518
537.654	530
537.868	513
538.082	525
538.296	520
538.51	514
538.724	515
538.938	530
539.153	519
539.367	515
539.581	530
539.795	516
540.009	517
540.222	533
540.436	526
540.65	492
540.864	515
541.078	525
541.292	534
541.506	511
541.72	509
541.934	512
542.147	529
542.361	522
542.575	528
542.789	507
543.002	515
543.216	505
543.43	505
543.644	523
543.857	532
544.071	535
544.285	514
544.498	518
544.712	525
544.925	521
545.139	516
545.352	505
545.566	485
545.779	488
545.993	527
546.206	529
546.42	513
546.633	491
546.847	486
547.06	509
547.274	499
547.487	485
547.7	502
547.914	510
548.127	506
548.34	515
548.554	505
548.767	533
548.98	508
549.193	497
549.407	499
549.62	509
549.833	507
550.046	494
550.259	490
550.473	481
550.686	507
550.899	486
551.112	490
551.325	502
551.538	489
551.751	486
551.964	499
552.177	480
552.39	500
552.603	506
552.816	503
553.029	516
553.242	520
553.455	523
553.667	534
553.88	525
554.093	490
554.306	503
554.519	515
554.732	516
554.944	470
555.157	490
555.37	506
555.583	475
555.795	451
556.008	462
556.221	451
556.433	441
556.646	449
556.859	454
557.071	470
557.284	458
557.496	474
557.709	446
557.921	424
558.134	431
558.346	465
558.559	444
558.771	453
558.984	460
559.196	439
559.409	441
559.621	445
559.833	443
560.046	434
560.258	448
560.47	445
560.683	419
560.895	429
561.107	423
561.32	459
561.532	462
561.744	464
561.956	462
562.168	436
562.381	443
562.593	441
562.805	430
563.017	463
563.229	445
563.441	449
563.653	462
563.865	438
564.077	428
564.289	447
564.501	464
564.713	471
564.925	451
565.137	487
565.349	498
565.561	474
565.773	490
565.985	495
566.197	516
566.408	524
566.62	531
566.832	589
567.044	564
567.255	599
567.467	573
567.679	601
567.891	617
568.102	614
568.314	582
568.526	563
568.737	548
568.949	517
569.161	473
569.372	466
569.584	483
569.795	473
570.007	466
570.218	505
570.43	501
570.641	423
570.853	423
571.064	443
571.276	430
571.487	418
571.698	434
571.91	404
572.121	389
572.333	417
572.544	425
572.755	400
572.966	393
573.178	387
573.389	408
573.6	407
573.811	403
574.023	390
574.234	389
574.445	374
574.656	373
574.867	372
575.078	401
575.289	385
575.501	392
575.712	372
575.923	374
576.134	383
576.345	393
576.556	375
576.767	378
576.978	378
577.188	373
577.399	365
577.61	381
577.821	372
578.032	383
578.243	410
578.454	609
578.665	477
578.875	377
579.086	368
579.297	347
579.508	358
579.718	354
579.929	356
580.14	345
580.35	349
580.561	345
580.772	343
580.982	347
581.193	331
581.403	330
581.614	333
581.825	343
582.035	336
582.246	345
582.456	342
582.667	360
582.877	329
583.087	318
583.298	314
583.508	341
583.719	320
583.929	333
584.139	350
584.35	333
584.56	339
584.77	347
584.981	340
585.191	329
585.401	341
585.611	323
585.821	348
586.032	328
586.242	332
586.452	337
586.662	346
586.872	352
587.082	319
587.292	337
587.502	329
587.713	330
587.923	330
588.133	319
588.343	331
588.553	342
588.762	322
588.972	344
589.182	342
589.392	325
589.602	323
589.812	344
590.022	338
590.232	330
590.441	324
590.651	336
590.861	350
591.071	341
591.281	345
591.49	327
591.7	326
591.91	327
592.119	333
592.329	344
592.539	351
592.748	363
592.958	357
593.167	354
593.377	356
593.587	355
593.796	370
594.006	330
594.215	347
594.424	375
594.634	346
594.843	342
595.053	345
595.262	325
595.472	337
595.681	325
595.89	308
596.1	327
596.309	329
596.518	321
596.727	322
596.937	323
597.146	324
597.355	318
597.564	309
597.774	309
597.983	309
598.192	295
598.401	287
598.61	294
598.819	307
599.028	299
599.237	293
599.446	300
599.655	305
599.864	305
600.073	286
600.282	289
600.491	294
600.7	293
600.909	285
601.118	298
601.327	296
601.536	296
601.745	297
601.953	296
602.162	283
602.371	282
602.58	290
602.789	268
602.997	280
603.206	275
603.415	282
603.623	277
603.832	266
604.041	279
604.249	284
604.458	270
604.666	283
604.875	275
605.084	261
605.292	272
605.501	267
605.709	264
605.918	269
606.126	247
606.334	283
606.543	280
606.751	286
606.96	268
607.168	259
607.376	263
607.585	276
607.793	265
608.001	254
608.21	267
608.418	274
608.626	258
608.834	253
609.043	257
609.251	258
609.459	281
609.667	273
609.875	265
610.083	261
610.291	269
610.499	282
610.707	282
610.916	275
611.124	287
611.332	277
611.54	280
611.748	286
611.955	264
612.163	264
612.371	273
612.579	251
612.787	275
612.995	259
613.203	270
613.411	256
613.618	277
613.826	248
614.034	274
614.242	247
614.449	241
614.657	244
614.865	244
615.072	276
615.28	253
615.488	235
615.695	273
615.903	268
616.111	261
616.318	252
616.526	251
616.733	248
616.941	239
617.148	244
617.356	261
617.563	261
617.771	260
617.978	247
618.185	250
618.393	260
618.6	258
618.807	259
619.015	259
619.222	246
619.429	244
619.637	258
619.844	236
620.051	255
620.258	237
620.466	251
620.673	262
620.88	218
621.087	233
621.294	248
621.501	246
621.708	246
621.915	248
622.122	245
622.329	245
622.536	239
622.743	238
622.95	233
623.157	229
623.364	228
623.571	238
623.778	229
623.985	226
624.192	230
624.399	236
624.606	230
624.812	234
625.019	226
625.226	237
625.433	220
625.639	235
625.846	238
626.053	221
626.259	233
626.466	228
626.673	226
626.879	211
627.086	257
627.293	237
627.499	209
627.706	236
627.912	239
628.119	227
628.325	222
628.532	218
628.738	204
628.945	230
629.151	214
629.357	196
629.564	216
629.77	223
629.976	199
630.183	208
630.389	200
630.595	214
630.802	219
631.008	210
631.214	199
631.42	223
631.627	219
631.833	223
632.039	202
632.245	192
632.451	215
632.657	202
632.863	197
633.069	210
633.275	198
633.481	204
633.688	205
633.893	202
634.099	219
634.305	196
634.511	187
634.717	206
634.923	188
635.129	199
635.335	203
635.541	197
635.747	197
635.952	186
636.158	215
636.364	214
636.57	205
636.775	204
636.981	178
637.187	197
637.392	213
637.598	185
637.804	187
638.009	193
638.215	197
638.421	197
638.626	201
638.832	183
639.037	188
639.243	195
639.448	191
639.654	183
639.859	198
640.065	195
640.27	194
640.475	186
640.681	171
640.886	177
641.091	172
641.297	191
641.502	179
641.707	164
641.913	189
642.118	191
642.323	171
642.528	180
642.733	169
642.939	167
643.144	173
643.349	181
643.554	185
643.759	179
643.964	168
644.169	183
644.374	199
644.579	188
644.784	172
644.989	198
645.194	170
645.399	186
645.604	167
645.809	185
646.014	179
646.219	178
646.423	171
646.628	183
646.833	179
647.038	171
647.243	174
647.447	174
647.652	183
647.857	191
648.062	185
648.266	172
648.471	177
648.676	177
648.88	170
649.085	197
649.289	186
649.494	179
649.698	214
649.903	194
650.107	181
650.312	190
650.516	183
650.721	161
650.925	174
651.13	151
651.334	167
651.539	169
651.743	160
651.947	145
652.152	149
652.356	145
652.56	153
652.764	146
652.969	150
653.173	137
653.377	156
653.581	143
653.785	174
653.99	139
654.194	150
654.398	119
654.602	150
654.806	148
655.01	151
655.214	152
655.418	157
655.622	131
655.826	135
656.03	149
656.234	142
656.438	147
656.642	132
656.846	138
657.049	129
657.253	149
657.457	125
657.661	121
657.865	123
658.068	129
658.272	108
658.476	116
658.68	106
658.883	110
659.087	88
659.291	113
659.494	115
659.698	94
659.901	99
660.105	110
660.309	91
660.512	92
660.716	103
660.919	101
661.123	100
661.326	88
661.53	95
661.733	94
661.936	85
662.14	90
662.343	93
662.546	91
662.75	84
662.953	83
663.156	104
663.36	96
663.563	93
663.766	73
663.969	84
664.173	84
664.376	89
664.579	88
664.782	76
664.985	87
665.188	84
665.391	99
665.594	80
665.797	81
666	97
666.203	78
666.406	74
666.609	91
666.812	77
667.015	73
667.218	85
667.421	76
667.624	88
667.827	86
668.03	90
668.232	93
668.435	78
668.638	69
668.841	83
669.043	83
669.246	77
669.449	78
669.651	73
669.854	72
670.057	82
670.259	96
670.462	86
670.665	79
670.867	81
671.07	76
671.272	83
671.475	84
671.677	87
671.88	84
672.082	91
672.284	77
672.487	89
672.689	80
672.892	72
