Data from 0.5MCu(NO3)2.Standard.Lamp.E10.CV._HRD10591_16-06-03-753.txt Node
Date: Mon Jul 22 16:06:03 EDT 2019
User: cochatt
Spectrometer: HR+D1059
Trigger mode: 1
Integration Time (sec): 1.000000E-1
Scans to average: 1
Electric dark correction enabled: true
Nonlinearity correction enabled: false
Boxcar width: 0
XAxis mode: Wavelengths
Number of Pixels in Spectrum: 2048
>>>>>Begin Spectral Data<<<<<
223.165	-11
223.4	-11
223.635	-11
223.869	-11
224.104	-12
224.338	-9
224.573	-11
224.808	-24
225.042	-5
225.277	-6
225.511	-12
225.746	10
225.98	-3
226.215	5
226.449	20
226.683	29
226.918	13
227.152	27
227.387	43
227.621	35
227.856	50
228.09	54
228.324	58
228.559	65
228.793	62
229.027	67
229.262	77
229.496	84
229.73	77
229.964	83
230.199	87
230.433	84
230.667	85
230.901	90
231.136	85
231.37	79
231.604	91
231.838	86
232.072	99
232.306	85
232.541	77
232.775	78
233.009	89
233.243	99
233.477	88
233.711	93
233.945	86
234.179	87
234.413	114
234.647	92
234.881	72
235.115	85
235.349	80
235.583	84
235.817	90
236.051	90
236.285	93
236.519	104
236.753	109
236.987	87
237.221	86
237.455	100
237.689	98
237.922	94
238.156	81
238.39	93
238.624	92
238.858	83
239.091	94
239.325	92
239.559	97
239.793	97
240.027	98
240.26	74
240.494	82
240.728	87
240.961	97
241.195	86
241.429	114
241.662	91
241.896	85
242.13	86
242.363	93
242.597	96
242.83	86
243.064	84
243.298	107
243.531	105
243.765	87
243.998	85
244.232	93
244.465	97
244.699	108
244.932	99
245.166	94
245.399	98
245.633	89
245.866	114
246.099	114
246.333	105
246.566	93
246.8	104
247.033	99
247.266	101
247.5	103
247.733	110
247.966	113
248.2	98
248.433	96
248.666	105
248.899	110
249.133	100
249.366	106
249.599	100
249.832	92
250.066	92
250.299	112
250.532	125
250.765	102
250.998	99
251.231	102
251.465	101
251.698	106
251.931	131
252.164	113
252.397	108
252.63	117
252.863	115
253.096	113
253.329	107
253.562	101
253.795	109
254.028	121
254.261	109
254.494	90
254.727	106
254.96	122
255.193	98
255.426	119
255.659	121
255.892	121
256.124	116
256.357	127
256.59	108
256.823	102
257.056	110
257.289	113
257.521	106
257.754	113
257.987	99
258.22	116
258.452	117
258.685	107
258.918	97
259.151	111
259.383	125
259.616	110
259.849	122
260.081	121
260.314	126
260.547	122
260.779	110
261.012	108
261.244	129
261.477	129
261.71	111
261.942	125
262.175	108
262.407	126
262.64	106
262.872	133
263.105	122
263.337	125
263.57	117
263.802	104
264.035	108
264.267	131
264.499	131
264.732	119
264.964	127
265.197	131
265.429	136
265.661	135
265.894	137
266.126	127
266.358	123
266.591	134
266.823	128
267.055	125
267.287	138
267.52	125
267.752	130
267.984	119
268.216	135
268.448	127
268.681	120
268.913	130
269.145	138
269.377	138
269.609	124
269.841	131
270.073	123
270.306	137
270.538	135
270.77	149
271.002	140
271.234	115
271.466	129
271.698	134
271.93	140
272.162	137
272.394	127
272.626	145
272.858	128
273.09	131
273.322	125
273.553	137
273.785	131
274.017	129
274.249	148
274.481	136
274.713	131
274.945	135
275.176	126
275.408	143
275.64	155
275.872	155
276.104	147
276.335	140
276.567	119
276.799	155
277.031	145
277.262	147
277.494	137
277.726	136
277.957	135
278.189	147
278.421	161
278.652	150
278.884	154
279.115	154
279.347	143
279.579	131
279.81	147
280.042	144
280.273	146
280.505	135
280.736	146
280.968	149
281.199	153
281.431	167
281.662	144
281.894	157
282.125	140
282.356	165
282.588	147
282.819	165
283.051	157
283.282	158
283.513	174
283.745	139
283.976	162
284.207	167
284.439	167
284.67	159
284.901	165
285.132	162
285.364	145
285.595	152
285.826	145
286.057	156
286.288	142
286.52	167
286.751	166
286.982	162
287.213	161
287.444	171
287.675	154
287.906	163
288.138	157
288.369	166
288.6	150
288.831	156
289.062	164
289.293	167
289.524	158
289.755	149
289.986	156
290.217	170
290.448	174
290.679	153
290.91	157
291.141	159
291.371	167
291.602	158
291.833	165
292.064	185
292.295	161
292.526	161
292.757	177
292.987	165
293.218	179
293.449	174
293.68	167
293.91	159
294.141	177
294.372	177
294.603	177
294.833	191
295.064	155
295.295	162
295.525	171
295.756	179
295.987	170
296.217	173
296.448	177
296.679	178
296.909	176
297.14	170
297.37	158
297.601	174
297.831	184
298.062	163
298.292	182
298.523	185
298.753	179
298.984	181
299.214	174
299.445	173
299.675	161
299.905	177
300.136	188
300.366	173
300.597	171
300.827	179
301.057	199
301.288	189
301.518	196
301.748	199
301.979	177
302.209	187
302.439	189
302.669	190
302.9	189
303.13	194
303.36	169
303.59	176
303.82	183
304.051	191
304.281	187
304.511	193
304.741	178
304.971	179
305.201	199
305.431	186
305.661	186
305.891	182
306.121	180
306.352	178
306.582	183
306.812	177
307.042	180
307.272	185
307.502	197
307.731	181
307.961	179
308.191	175
308.421	166
308.651	179
308.881	172
309.111	168
309.341	176
309.571	185
309.8	196
310.03	175
310.26	185
310.49	185
310.72	183
310.949	177
311.179	166
311.409	191
311.639	171
311.868	166
312.098	180
312.328	187
312.557	193
312.787	180
313.017	196
313.246	199
313.476	184
313.706	194
313.935	178
314.165	193
314.394	179
314.624	189
314.853	195
315.083	185
315.312	183
315.542	200
315.771	197
316.001	177
316.23	175
316.46	185
316.689	158
316.919	182
317.148	196
317.377	173
317.607	194
317.836	189
318.065	189
318.295	189
318.524	183
318.753	174
318.983	190
319.212	177
319.441	193
319.67	182
319.9	171
320.129	175
320.358	194
320.587	181
320.816	180
321.046	201
321.275	170
321.504	170
321.733	182
321.962	183
322.191	183
322.42	201
322.649	185
322.878	190
323.108	191
323.337	195
323.566	186
323.795	182
324.024	189
324.253	184
324.482	193
324.71	187
324.939	187
325.168	195
325.397	188
325.626	186
325.855	208
326.084	200
326.313	198
326.542	192
326.77	199
326.999	198
327.228	184
327.457	180
327.686	193
327.914	188
328.143	207
328.372	189
328.6	191
328.829	206
329.058	182
329.287	204
329.515	199
329.744	193
329.972	201
330.201	204
330.43	182
330.658	198
330.887	202
331.115	192
331.344	202
331.572	188
331.801	212
332.03	215
332.258	223
332.486	209
332.715	211
332.943	227
333.172	244
333.4	237
333.629	259
333.857	247
334.085	243
334.314	247
334.542	218
334.771	235
334.999	226
335.227	215
335.455	229
335.684	205
335.912	213
336.14	227
336.369	230
336.597	222
336.825	232
337.053	223
337.281	205
337.51	242
337.738	214
337.966	226
338.194	198
338.422	209
338.65	213
338.878	210
339.106	213
339.334	205
339.562	205
339.79	201
340.018	192
340.246	198
340.474	201
340.702	203
340.93	216
341.158	211
341.386	206
341.614	209
341.842	191
342.07	198
342.298	195
342.526	201
342.754	218
342.981	192
343.209	215
343.437	215
343.665	230
343.893	235
344.12	235
344.348	215
344.576	227
344.804	202
345.031	202
345.259	191
345.487	196
345.714	199
345.942	202
346.17	212
346.397	195
346.625	214
346.853	207
347.08	203
347.308	190
347.535	210
347.763	210
347.99	205
348.218	211
348.445	185
348.673	210
348.9	211
349.128	211
349.355	194
349.583	190
349.81	200
350.037	199
350.265	196
350.492	193
350.72	197
350.947	186
351.174	198
351.402	199
351.629	178
351.856	193
352.083	172
352.311	199
352.538	204
352.765	193
352.992	189
353.22	202
353.447	209
353.674	188
353.901	192
354.128	195
354.355	196
354.583	194
354.81	188
355.037	202
355.264	205
355.491	188
355.718	197
355.945	196
356.172	199
356.399	200
356.626	178
356.853	195
357.08	198
357.307	199
357.534	191
357.761	202
357.988	190
358.215	190
358.441	183
358.668	200
358.895	188
359.122	204
359.349	178
359.576	186
359.802	185
360.029	194
360.256	187
360.483	188
360.709	179
360.936	187
361.163	189
361.39	194
361.616	190
361.843	187
362.07	188
362.296	194
362.523	200
362.749	187
362.976	183
363.203	196
363.429	196
363.656	191
363.882	206
364.109	182
364.335	179
364.562	199
364.788	170
365.015	193
365.241	189
365.468	191
365.694	183
365.92	202
366.147	199
366.373	187
366.599	184
366.826	182
367.052	178
367.278	171
367.505	182
367.731	195
367.957	199
368.184	202
368.41	187
368.636	189
368.862	194
369.089	197
369.315	203
369.541	210
369.767	202
369.993	192
370.219	193
370.445	207
370.672	196
370.898	209
371.124	207
371.35	204
371.576	206
371.802	195
372.028	207
372.254	211
372.48	209
372.706	198
372.932	218
373.158	197
373.384	193
373.61	186
373.835	206
374.061	187
374.287	203
374.513	193
374.739	205
374.965	217
375.191	223
375.416	206
375.642	226
375.868	225
376.094	207
376.319	201
376.545	201
376.771	215
376.997	197
377.222	203
377.448	201
377.674	196
377.899	211
378.125	201
378.35	187
378.576	200
378.802	187
379.027	187
379.253	202
379.478	187
379.704	209
379.929	201
380.155	173
380.38	194
380.606	192
380.831	194
381.057	210
381.282	187
381.507	199
381.733	210
381.958	201
382.184	202
382.409	190
382.634	200
382.86	211
383.085	203
383.31	207
383.535	234
383.761	222
383.986	210
384.211	220
384.436	225
384.662	223
384.887	223
385.112	213
385.337	233
385.562	254
385.787	239
386.013	238
386.238	235
386.463	225
386.688	236
386.913	226
387.138	228
387.363	222
387.588	215
387.813	222
388.038	234
388.263	236
388.488	234
388.713	219
388.938	217
389.163	232
389.387	236
389.612	235
389.837	233
390.062	233
390.287	211
390.512	226
390.736	225
390.961	235
391.186	238
391.411	227
391.636	237
391.86	250
392.085	268
392.31	256
392.534	242
392.759	233
392.984	231
393.208	244
393.433	236
393.658	243
393.882	255
394.107	244
394.331	247
394.556	244
394.78	244
395.005	236
395.229	229
395.454	243
395.678	249
395.903	261
396.127	241
396.352	230
396.576	233
396.801	225
397.025	235
397.249	233
397.474	251
397.698	253
397.922	238
398.147	233
398.371	245
398.595	270
398.82	246
399.044	285
399.268	297
399.492	366
399.717	392
399.941	381
400.165	359
400.389	299
400.613	267
400.837	272
401.062	272
401.286	283
401.51	251
401.734	266
401.958	277
402.182	260
402.406	268
402.63	277
402.854	285
403.078	279
403.302	310
403.526	305
403.75	290
403.974	304
404.198	318
404.422	300
404.645	302
404.869	313
405.093	305
405.317	296
405.541	295
405.765	288
405.988	300
406.212	291
406.436	274
406.66	286
406.883	307
407.107	312
407.331	321
407.555	338
407.778	325
408.002	305
408.226	296
408.449	295
408.673	299
408.896	283
409.12	293
409.344	295
409.567	298
409.791	300
410.014	314
410.238	299
410.461	306
410.685	289
410.908	294
411.132	278
411.355	259
411.578	277
411.802	282
412.025	266
412.249	277
412.472	270
412.695	269
412.919	268
413.142	274
413.365	277
413.589	272
413.812	251
414.035	250
414.258	266
414.482	259
414.705	277
414.928	261
415.151	268
415.374	283
415.597	268
415.821	267
416.044	267
416.267	241
416.49	248
416.713	253
416.936	270
417.159	279
417.382	280
417.605	272
417.828	266
418.051	264
418.274	269
418.497	281
418.72	281
418.943	265
419.166	281
419.389	293
419.611	284
419.834	293
420.057	292
420.28	266
420.503	253
420.726	268
420.948	281
421.171	257
421.394	257
421.617	268
421.839	267
422.062	267
422.285	279
422.507	277
422.73	258
422.953	283
423.175	275
423.398	281
423.621	281
423.843	294
424.066	283
424.288	275
424.511	272
424.733	286
424.956	283
425.178	268
425.401	284
425.623	267
425.846	263
426.068	253
426.291	241
426.513	244
426.735	246
426.958	226
427.18	258
427.402	251
427.625	232
427.847	234
428.069	251
428.292	228
428.514	229
428.736	228
428.958	232
429.181	232
429.403	239
429.625	221
429.847	227
430.069	230
430.292	217
430.514	222
430.736	245
430.958	238
431.18	247
431.402	222
431.624	234
431.846	229
432.068	261
432.29	247
432.512	237
432.734	256
432.956	239
433.178	241
433.4	217
433.622	238
433.844	257
434.066	242
434.287	249
434.509	241
434.731	265
434.953	276
435.175	268
435.397	269
435.618	242
435.84	245
436.062	233
436.284	234
436.505	229
436.727	243
436.949	248
437.17	258
437.392	239
437.614	230
437.835	222
438.057	231
438.278	220
438.5	231
438.721	218
438.943	243
439.165	238
439.386	230
439.608	242
439.829	245
440.05	235
440.272	239
440.493	233
440.715	247
440.936	265
441.158	257
441.379	274
441.6	296
441.822	267
442.043	271
442.264	261
442.486	246
442.707	247
442.928	262
443.149	259
443.371	271
443.592	261
443.813	260
444.034	272
444.255	290
444.476	285
444.698	306
444.919	309
445.14	404
445.361	322
445.582	291
445.803	241
446.024	263
446.245	253
446.466	241
446.687	237
446.908	247
447.129	239
447.35	211
447.571	214
447.792	211
448.013	231
448.234	225
448.455	219
448.675	221
448.896	228
449.117	229
449.338	219
449.559	231
449.779	223
450	218
450.221	226
450.442	213
450.662	235
450.883	228
451.104	238
451.324	236
451.545	228
451.766	224
451.986	216
452.207	226
452.428	213
452.648	221
452.869	249
453.089	220
453.31	234
453.53	222
453.751	204
453.971	214
454.192	219
454.412	207
454.633	210
454.853	219
455.073	219
455.294	215
455.514	207
455.734	219
455.955	210
456.175	222
456.395	231
456.616	205
456.836	229
457.056	218
457.276	222
457.497	223
457.717	220
457.937	200
458.157	215
458.377	207
458.598	217
458.818	222
459.038	219
459.258	244
459.478	249
459.698	250
459.918	257
460.138	283
460.358	285
460.578	291
460.798	287
461.018	272
461.238	277
461.458	289
461.678	283
461.898	264
462.118	277
462.338	299
462.558	304
462.777	323
462.997	346
463.217	357
463.437	366
463.657	335
463.876	331
464.096	307
464.316	321
464.536	325
464.755	306
464.975	313
465.195	305
465.414	274
465.634	256
465.854	254
466.073	264
466.293	229
466.512	236
466.732	241
466.951	234
467.171	229
467.391	247
467.61	235
467.829	232
468.049	227
468.268	231
468.488	221
468.707	235
468.927	232
469.146	237
469.365	233
469.585	237
469.804	233
470.023	245
470.243	227
470.462	259
470.681	257
470.901	251
471.12	251
471.339	238
471.558	257
471.777	249
471.997	211
472.216	232
472.435	223
472.654	221
472.873	233
473.092	238
473.311	234
473.53	207
473.749	210
473.968	232
474.187	218
474.406	228
474.625	229
474.844	242
475.063	224
475.282	219
475.501	214
475.72	213
475.939	230
476.158	217
476.377	218
476.596	218
476.814	216
477.033	243
477.252	230
477.471	245
477.69	234
477.908	249
478.127	263
478.346	269
478.564	286
478.783	277
479.002	265
479.22	262
479.439	281
479.658	247
479.876	266
480.095	281
480.313	288
480.532	297
480.751	296
480.969	286
481.188	269
481.406	267
481.624	274
481.843	243
482.061	271
482.28	258
482.498	250
482.717	250
482.935	272
483.153	258
483.372	266
483.59	261
483.808	260
484.027	278
484.245	271
484.463	246
484.681	287
484.9	269
485.118	267
485.336	278
485.554	260
485.772	284
485.99	273
486.209	265
486.427	271
486.645	275
486.863	274
487.081	266
487.299	269
487.517	283
487.735	246
487.953	283
488.171	287
488.389	281
488.607	244
488.825	262
489.043	243
489.261	274
489.479	263
489.696	278
489.914	268
490.132	272
490.35	278
490.568	262
490.786	280
491.003	258
491.221	264
491.439	289
491.657	266
491.874	283
492.092	281
492.31	264
492.527	283
492.745	271
492.963	285
493.18	263
493.398	282
493.615	271
493.833	279
494.05	282
494.268	274
494.485	278
494.703	299
494.92	286
495.138	267
495.355	285
495.573	297
495.79	273
496.008	276
496.225	284
496.442	267
496.66	270
496.877	299
497.094	301
497.312	298
497.529	306
497.746	299
497.963	320
498.181	337
498.398	338
498.615	353
498.832	377
499.049	385
499.267	411
499.484	460
499.701	499
499.918	576
500.135	654
500.352	741
500.569	775
500.786	785
501.003	723
501.22	626
501.437	558
501.654	507
501.871	449
502.088	420
502.305	404
502.522	380
502.739	369
502.956	347
503.172	341
503.389	306
503.606	310
503.823	318
504.04	319
504.256	318
504.473	328
504.69	343
504.907	321
505.123	297
505.34	301
505.557	284
505.773	280
505.99	286
506.207	252
506.423	270
506.64	273
506.856	261
507.073	248
507.289	254
507.506	247
507.722	256
507.939	265
508.155	244
508.372	248
508.588	253
508.805	265
509.021	276
509.238	250
509.454	240
509.67	252
509.887	251
510.103	246
510.319	249
510.536	220
510.752	233
510.968	259
511.184	261
511.401	239
511.617	242
511.833	235
512.049	231
512.265	242
512.481	235
512.698	245
512.914	243
513.13	243
513.346	238
513.562	231
513.778	243
513.994	252
514.21	242
514.426	238
514.642	265
514.858	237
515.074	230
515.29	266
515.506	247
515.721	249
515.937	268
516.153	290
516.369	274
516.585	270
516.801	279
517.016	293
517.232	306
517.448	328
517.664	337
517.879	324
518.095	338
518.311	318
518.527	313
518.742	306
518.958	273
519.173	297
519.389	266
519.605	258
519.82	219
520.036	263
520.251	251
520.467	250
520.682	246
520.898	248
521.113	261
521.329	234
521.544	232
521.76	237
521.975	233
522.19	230
522.406	254
522.621	244
522.836	232
523.052	244
523.267	223
523.482	217
523.698	208
523.913	227
524.128	250
524.343	212
524.559	233
524.774	230
524.989	227
525.204	253
525.419	230
525.634	241
525.849	229
526.064	222
526.28	230
526.495	213
526.71	223
526.925	235
527.14	224
527.355	224
527.57	214
527.785	234
527.999	216
528.214	224
528.429	239
528.644	243
528.859	241
529.074	219
529.289	217
529.503	241
529.718	215
529.933	227
530.148	244
530.363	229
530.577	231
530.792	219
531.007	228
531.221	225
531.436	213
531.651	220
531.865	241
532.08	240
532.295	217
532.509	236
532.724	232
532.938	236
533.153	234
533.367	223
533.582	236
533.796	239
534.011	230
534.225	237
534.44	207
534.654	228
534.868	227
535.083	226
535.297	228
535.511	227
535.726	231
535.94	226
536.154	205
536.369	217
536.583	190
536.797	227
537.011	217
537.225	223
537.44	239
537.654	221
537.868	212
538.082	198
538.296	219
538.51	223
538.724	217
538.938	201
539.153	208
539.367	229
539.581	220
539.795	208
540.009	217
540.222	225
540.436	216
540.65	208
540.864	220
541.078	212
541.292	222
541.506	224
541.72	220
541.934	221
542.147	221
542.361	202
542.575	207
542.789	220
543.002	219
543.216	213
543.43	226
543.644	225
543.857	224
544.071	223
544.285	212
544.498	222
544.712	229
544.925	213
545.139	210
545.352	229
545.566	239
545.779	214
545.993	227
546.206	226
546.42	224
546.633	214
546.847	208
547.06	203
547.274	216
547.487	238
547.7	228
547.914	239
548.127	211
548.34	235
548.554	223
548.767	247
548.98	231
549.193	222
549.407	230
549.62	232
549.833	220
550.046	238
550.259	223
550.473	216
550.686	218
550.899	214
551.112	213
551.325	204
551.538	222
551.751	213
551.964	234
552.177	228
552.39	233
552.603	217
552.816	238
553.029	212
553.242	252
553.455	227
553.667	246
553.88	241
554.093	246
554.306	256
554.519	234
554.732	234
554.944	230
555.157	213
555.37	236
555.583	208
555.795	202
556.008	197
556.221	207
556.433	194
556.646	204
556.859	207
557.071	210
557.284	209
557.496	187
557.709	195
557.921	211
558.134	218
558.346	213
558.559	204
558.771	195
558.984	193
559.196	195
559.409	204
559.621	213
559.833	188
560.046	197
560.258	205
560.47	194
560.683	197
560.895	202
561.107	187
561.32	204
561.532	203
561.744	174
561.956	202
562.168	197
562.381	202
562.593	200
562.805	202
563.017	213
563.229	197
563.441	203
563.653	208
563.865	207
564.077	204
564.289	211
564.501	218
564.713	201
564.925	216
565.137	214
565.349	214
565.561	210
565.773	232
565.985	234
566.197	237
566.408	241
566.62	273
566.832	295
567.044	310
567.255	293
567.467	299
567.679	312
567.891	342
568.102	350
568.314	348
568.526	317
568.737	282
568.949	271
569.161	233
569.372	211
569.584	221
569.795	213
570.007	204
570.218	194
570.43	214
570.641	202
570.853	198
571.064	200
571.276	225
571.487	219
571.698	205
571.91	193
572.121	191
572.333	187
572.544	185
572.755	193
572.966	186
573.178	166
573.389	177
573.6	169
573.811	172
574.023	186
574.234	168
574.445	180
574.656	183
574.867	196
575.078	184
575.289	189
575.501	181
575.712	180
575.923	174
576.134	179
576.345	170
576.556	159
576.767	164
576.978	176
577.188	169
577.399	177
577.61	151
577.821	174
578.032	181
578.243	169
578.454	167
578.665	175
578.875	168
579.086	147
579.297	149
579.508	163
579.718	180
579.929	156
580.14	172
580.35	158
580.561	161
580.772	166
580.982	177
581.193	181
581.403	175
581.614	162
581.825	172
582.035	167
582.246	167
582.456	157
582.667	164
582.877	173
583.087	169
583.298	164
583.508	167
583.719	171
583.929	166
584.139	165
584.35	154
584.56	167
584.77	165
584.981	157
585.191	168
585.401	163
585.611	163
585.821	174
586.032	163
586.242	162
586.452	166
586.662	160
586.872	162
587.082	161
587.292	151
587.502	155
587.713	139
587.923	150
588.133	148
588.343	164
588.553	158
588.762	175
588.972	156
589.182	162
589.392	175
589.602	157
589.812	151
590.022	164
590.232	148
590.441	169
590.651	159
590.861	169
591.071	165
591.281	159
591.49	166
591.7	162
591.91	172
592.119	168
592.329	151
592.539	168
592.748	182
592.958	172
593.167	186
593.377	190
593.587	199
593.796	182
594.006	206
594.215	188
594.424	197
594.634	187
594.843	184
595.053	184
595.262	189
595.472	180
595.681	166
595.89	166
596.1	179
596.309	158
596.518	165
596.727	157
596.937	147
597.146	157
597.355	161
597.564	150
597.774	149
597.983	150
598.192	167
598.401	148
598.61	143
598.819	145
599.028	144
599.237	146
599.446	130
599.655	156
599.864	148
600.073	134
600.282	142
600.491	145
600.7	145
600.909	147
601.118	142
601.327	143
601.536	148
601.745	140
601.953	148
602.162	154
602.371	134
602.58	153
602.789	141
602.997	144
603.206	144
603.415	135
603.623	147
603.832	149
604.041	152
604.249	132
604.458	141
604.666	143
604.875	146
605.084	148
605.292	138
605.501	133
605.709	138
605.918	146
606.126	145
606.334	147
606.543	143
606.751	135
606.96	139
607.168	146
607.376	134
607.585	140
607.793	131
608.001	149
608.21	147
608.418	138
608.626	133
608.834	129
609.043	141
609.251	135
609.459	133
609.667	168
609.875	141
610.083	149
610.291	135
610.499	141
610.707	140
610.916	152
611.124	129
611.332	137
611.54	131
611.748	145
611.955	129
612.163	140
612.371	134
612.579	137
612.787	146
612.995	142
613.203	153
613.411	145
613.618	141
613.826	138
614.034	148
614.242	133
614.449	136
614.657	136
614.865	137
615.072	139
615.28	148
615.488	130
615.695	133
615.903	137
616.111	146
616.318	144
616.526	139
616.733	158
616.941	135
617.148	131
617.356	155
617.563	149
617.771	144
617.978	132
618.185	136
618.393	147
618.6	143
618.807	149
619.015	139
619.222	127
619.429	123
619.637	138
619.844	139
620.051	129
620.258	146
620.466	136
620.673	135
620.88	142
621.087	128
621.294	129
621.501	125
621.708	113
621.915	111
622.122	147
622.329	149
622.536	128
622.743	130
622.95	133
623.157	144
623.364	122
623.571	136
623.778	129
623.985	125
624.192	132
624.399	131
624.606	144
624.812	129
625.019	127
625.226	134
625.433	123
625.639	143
625.846	133
626.053	123
626.259	127
626.466	117
626.673	117
626.879	124
627.086	118
627.293	112
627.499	127
627.706	130
627.912	129
628.119	134
628.325	126
628.532	127
628.738	126
628.945	118
629.151	130
629.357	104
629.564	112
629.77	123
629.976	124
630.183	135
630.389	127
630.595	101
630.802	127
631.008	125
631.214	117
631.42	130
631.627	123
631.833	139
632.039	117
632.245	113
632.451	126
632.657	113
632.863	117
633.069	137
633.275	126
633.481	115
633.688	142
633.893	118
634.099	124
634.305	123
634.511	121
634.717	124
634.923	108
635.129	125
635.335	148
635.541	133
635.747	132
635.952	125
636.158	118
636.364	136
636.57	108
636.775	106
636.981	113
637.187	122
637.392	132
637.598	126
637.804	112
638.009	118
638.215	114
638.421	109
638.626	123
638.832	122
639.037	115
639.243	108
639.448	125
639.654	118
639.859	125
640.065	124
640.27	119
640.475	124
640.681	130
640.886	115
641.091	124
641.297	108
641.502	119
641.707	117
641.913	107
642.118	105
642.323	118
642.528	123
642.733	100
642.939	117
643.144	122
643.349	131
643.554	124
643.759	133
643.964	124
644.169	109
644.374	126
644.579	117
644.784	119
644.989	120
645.194	111
645.399	118
645.604	124
645.809	123
646.014	109
646.219	121
646.423	115
646.628	111
646.833	116
647.038	113
647.243	110
647.447	109
647.652	125
647.857	118
648.062	127
648.266	117
648.471	126
648.676	132
648.88	117
649.085	113
649.289	111
649.494	121
649.698	114
649.903	108
650.107	112
650.312	123
650.516	101
650.721	107
650.925	110
651.13	120
651.334	113
651.539	116
651.743	95
651.947	108
652.152	103
652.356	104
652.56	119
652.764	109
652.969	105
653.173	96
653.377	111
653.581	104
653.785	105
653.99	101
654.194	97
654.398	97
654.602	101
654.806	100
655.01	108
655.214	108
655.418	102
655.622	94
655.826	109
656.03	104
656.234	95
656.438	111
656.642	115
656.846	110
657.049	117
657.253	117
657.457	99
657.661	103
657.865	96
658.068	92
658.272	89
658.476	101
658.68	106
658.883	101
659.087	89
659.291	89
659.494	94
659.698	88
659.901	95
660.105	91
660.309	86
660.512	90
660.716	103
660.919	91
661.123	82
661.326	88
661.53	85
661.733	91
661.936	86
662.14	84
662.343	78
662.546	89
662.75	87
662.953	78
663.156	87
663.36	87
663.563	82
663.766	90
663.969	85
664.173	79
664.376	80
664.579	86
664.782	87
664.985	94
665.188	63
665.391	95
665.594	87
665.797	84
666	84
666.203	86
666.406	87
666.609	78
666.812	81
667.015	77
667.218	83
667.421	83
667.624	89
667.827	84
668.03	88
668.232	83
668.435	78
668.638	95
668.841	97
669.043	83
669.246	85
669.449	79
669.651	93
669.854	90
670.057	94
670.259	87
670.462	86
670.665	88
670.867	87
671.07	80
671.272	93
671.475	82
671.677	84
671.88	79
672.082	75
672.284	99
672.487	80
672.689	90
672.892	83
