Data from Ni(NO3)2@0.25M.TitratingCurve.Agarose3%dH2O.NegLispCup.LampEnergy10.LIBS07252019_HRD10591_18-04-12-566.txt Node
Date: Thu Jul 25 18:04:12 EDT 2019
User: cochatt
Spectrometer: HR+D1059
Trigger mode: 1
Integration Time (sec): 1.000000E-1
Scans to average: 1
Electric dark correction enabled: true
Nonlinearity correction enabled: false
Boxcar width: 0
XAxis mode: Wavelengths
Number of Pixels in Spectrum: 2048
>>>>>Begin Spectral Data<<<<<
223.165	-16
223.4	-16
223.635	-16
223.869	-21
224.104	-19
224.338	-15
224.573	-17
224.808	-10
225.042	1
225.277	-3
225.511	4
225.746	-1
225.98	7
226.215	2
226.449	13
226.683	23
226.918	24
227.152	28
227.387	42
227.621	38
227.856	36
228.09	63
228.324	57
228.559	65
228.793	65
229.027	86
229.262	103
229.496	97
229.73	94
229.964	106
230.199	108
230.433	101
230.667	107
230.901	119
231.136	121
231.37	116
231.604	109
231.838	141
232.072	127
232.306	120
232.541	128
232.775	111
233.009	104
233.243	117
233.477	107
233.711	104
233.945	116
234.179	110
234.413	124
234.647	118
234.881	117
235.115	104
235.349	102
235.583	97
235.817	102
236.051	97
236.285	93
236.519	95
236.753	111
236.987	111
237.221	100
237.455	112
237.689	111
237.922	104
238.156	111
238.39	98
238.624	121
238.858	105
239.091	119
239.325	108
239.559	114
239.793	120
240.027	111
240.26	117
240.494	124
240.728	111
240.961	110
241.195	136
241.429	117
241.662	112
241.896	126
242.13	131
242.363	108
242.597	130
242.83	131
243.064	123
243.298	114
243.531	123
243.765	127
243.998	125
244.232	146
244.465	130
244.699	145
244.932	143
245.166	126
245.399	131
245.633	137
245.866	126
246.099	128
246.333	135
246.566	149
246.8	136
247.033	123
247.266	135
247.5	128
247.733	124
247.966	146
248.2	131
248.433	139
248.666	148
248.899	147
249.133	155
249.366	159
249.599	152
249.832	152
250.066	159
250.299	143
250.532	145
250.765	167
250.998	155
251.231	165
251.465	170
251.698	180
251.931	162
252.164	161
252.397	180
252.63	175
252.863	171
253.096	179
253.329	169
253.562	174
253.795	189
254.028	191
254.261	167
254.494	173
254.727	196
254.96	183
255.193	185
255.426	180
255.659	187
255.892	197
256.124	198
256.357	216
256.59	203
256.823	201
257.056	192
257.289	195
257.521	199
257.754	205
257.987	212
258.22	205
258.452	205
258.685	212
258.918	203
259.151	213
259.383	223
259.616	221
259.849	222
260.081	219
260.314	212
260.547	231
260.779	213
261.012	211
261.244	208
261.477	222
261.71	212
261.942	224
262.175	230
262.407	233
262.64	235
262.872	224
263.105	229
263.337	247
263.57	240
263.802	239
264.035	237
264.267	225
264.499	234
264.732	229
264.964	237
265.197	239
265.429	244
265.661	237
265.894	236
266.126	241
266.358	236
266.591	248
266.823	256
267.055	243
267.287	225
267.52	256
267.752	250
267.984	263
268.216	254
268.448	252
268.681	242
268.913	250
269.145	280
269.377	261
269.609	248
269.841	248
270.073	250
270.306	249
270.538	237
270.77	253
271.002	251
271.234	270
271.466	250
271.698	261
271.93	267
272.162	267
272.394	244
272.626	263
272.858	267
273.09	247
273.322	279
273.553	264
273.785	271
274.017	268
274.249	271
274.481	259
274.713	253
274.945	275
275.176	270
275.408	275
275.64	270
275.872	285
276.104	263
276.335	281
276.567	274
276.799	269
277.031	275
277.262	277
277.494	268
277.726	279
277.957	263
278.189	265
278.421	288
278.652	296
278.884	280
279.115	262
279.347	276
279.579	271
279.81	296
280.042	293
280.273	266
280.505	286
280.736	286
280.968	287
281.199	279
281.431	297
281.662	293
281.894	297
282.125	295
282.356	284
282.588	283
282.819	280
283.051	297
283.282	294
283.513	291
283.745	301
283.976	274
284.207	285
284.439	284
284.67	291
284.901	277
285.132	287
285.364	283
285.595	304
285.826	295
286.057	295
286.288	292
286.52	277
286.751	306
286.982	288
287.213	295
287.444	302
287.675	305
287.906	282
288.138	299
288.369	302
288.6	313
288.831	311
289.062	296
289.293	297
289.524	301
289.755	307
289.986	294
290.217	309
290.448	296
290.679	294
290.91	316
291.141	295
291.371	331
291.602	287
291.833	309
292.064	303
292.295	314
292.526	288
292.757	308
292.987	292
293.218	311
293.449	293
293.68	304
293.91	302
294.141	297
294.372	296
294.603	296
294.833	296
295.064	313
295.295	313
295.525	282
295.756	300
295.987	298
296.217	307
296.448	315
296.679	296
296.909	293
297.14	320
297.37	335
297.601	299
297.831	301
298.062	315
298.292	315
298.523	315
298.753	323
298.984	324
299.214	314
299.445	324
299.675	331
299.905	332
300.136	317
300.366	328
300.597	353
300.827	336
301.057	331
301.288	344
301.518	341
301.748	348
301.979	357
302.209	360
302.439	322
302.669	313
302.9	311
303.13	324
303.36	315
303.59	340
303.82	330
304.051	330
304.281	355
304.511	343
304.741	352
304.971	344
305.201	361
305.431	375
305.661	344
305.891	347
306.121	341
306.352	337
306.582	356
306.812	326
307.042	334
307.272	345
307.502	347
307.731	337
307.961	347
308.191	348
308.421	340
308.651	343
308.881	351
309.111	354
309.341	326
309.571	346
309.8	347
310.03	352
310.26	383
310.49	391
310.72	355
310.949	333
311.179	355
311.409	379
311.639	356
311.868	361
312.098	387
312.328	348
312.557	371
312.787	377
313.017	367
313.246	381
313.476	369
313.706	395
313.935	385
314.165	393
314.394	384
314.624	393
314.853	393
315.083	396
315.312	402
315.542	397
315.771	387
316.001	390
316.23	391
316.46	387
316.689	400
316.919	397
317.148	415
317.377	417
317.607	420
317.836	399
318.065	405
318.295	406
318.524	404
318.753	423
318.983	411
319.212	407
319.441	407
319.67	425
319.9	429
320.129	459
320.358	427
320.587	424
320.816	425
321.046	437
321.275	423
321.504	447
321.733	437
321.962	461
322.191	459
322.42	455
322.649	446
322.878	457
323.108	463
323.337	458
323.566	489
323.795	486
324.024	474
324.253	476
324.482	486
324.71	490
324.939	508
325.168	507
325.397	501
325.626	487
325.855	512
326.084	519
326.313	524
326.542	522
326.77	520
326.999	508
327.228	503
327.457	505
327.686	523
327.914	523
328.143	518
328.372	512
328.6	508
328.829	536
329.058	515
329.287	495
329.515	519
329.744	523
329.972	551
330.201	543
330.43	524
330.658	551
330.887	577
331.115	560
331.344	567
331.572	562
331.801	584
332.03	569
332.258	592
332.486	576
332.715	588
332.943	599
333.172	614
333.4	615
333.629	632
333.857	657
334.085	659
334.314	629
334.542	656
334.771	660
334.999	655
335.227	665
335.455	651
335.684	657
335.912	667
336.14	672
336.369	645
336.597	669
336.825	663
337.053	684
337.281	680
337.51	653
337.738	656
337.966	653
338.194	649
338.422	666
338.65	638
338.878	633
339.106	641
339.334	637
339.562	646
339.79	593
340.018	581
340.246	611
340.474	605
340.702	612
340.93	626
341.158	619
341.386	636
341.614	633
341.842	651
342.07	604
342.298	607
342.526	622
342.754	622
342.981	618
343.209	632
343.437	667
343.665	652
343.893	659
344.12	665
344.348	679
344.576	665
344.804	667
345.031	661
345.259	648
345.487	624
345.714	665
345.942	648
346.17	641
346.397	652
346.625	605
346.853	603
347.08	597
347.308	617
347.535	592
347.763	585
347.99	606
348.218	596
348.445	595
348.673	584
348.9	604
349.128	600
349.355	622
349.583	631
349.81	617
350.037	598
350.265	611
350.492	573
350.72	575
350.947	588
351.174	588
351.402	597
351.629	622
351.856	597
352.083	591
352.311	596
352.538	634
352.765	604
352.992	599
353.22	573
353.447	557
353.674	571
353.901	583
354.128	566
354.355	569
354.583	565
354.81	591
355.037	569
355.264	597
355.491	570
355.718	573
355.945	565
356.172	559
356.399	586
356.626	631
356.853	600
357.08	574
357.307	576
357.534	565
357.761	572
357.988	574
358.215	560
358.441	569
358.668	587
358.895	586
359.122	561
359.349	572
359.576	577
359.802	554
360.029	567
360.256	587
360.483	566
360.709	581
360.936	577
361.163	577
361.39	554
361.616	593
361.843	577
362.07	598
362.296	600
362.523	579
362.749	561
362.976	571
363.203	567
363.429	559
363.656	567
363.882	580
364.109	553
364.335	553
364.562	559
364.788	592
365.015	573
365.241	572
365.468	534
365.694	552
365.92	571
366.147	571
366.373	537
366.599	545
366.826	566
367.052	554
367.278	580
367.505	577
367.731	564
367.957	569
368.184	559
368.41	576
368.636	598
368.862	561
369.089	583
369.315	568
369.541	545
369.767	557
369.993	574
370.219	578
370.445	572
370.672	579
370.898	568
371.124	574
371.35	571
371.576	576
371.802	585
372.028	569
372.254	606
372.48	598
372.706	571
372.932	591
373.158	596
373.384	587
373.61	590
373.835	569
374.061	586
374.287	593
374.513	615
374.739	590
374.965	591
375.191	605
375.416	595
375.642	606
375.868	594
376.094	585
376.319	574
376.545	556
376.771	588
376.997	559
377.222	565
377.448	579
377.674	566
377.899	559
378.125	561
378.35	557
378.576	580
378.802	549
379.027	560
379.253	558
379.478	554
379.704	571
379.929	573
380.155	550
380.38	575
380.606	544
380.831	561
381.057	559
381.282	569
381.507	561
381.733	587
381.958	568
382.184	575
382.409	563
382.634	584
382.86	577
383.085	555
383.31	579
383.535	573
383.761	569
383.986	597
384.211	608
384.436	589
384.662	592
384.887	613
385.112	614
385.337	603
385.562	617
385.787	639
386.013	624
386.238	641
386.463	601
386.688	613
386.913	606
387.138	635
387.363	629
387.588	625
387.813	647
388.038	595
388.263	620
388.488	622
388.713	634
388.938	639
389.163	621
389.387	626
389.612	631
389.837	632
390.062	639
390.287	651
390.512	638
390.736	632
390.961	651
391.186	657
391.411	658
391.636	657
391.86	676
392.085	658
392.31	663
392.534	685
392.759	677
392.984	666
393.208	658
393.433	658
393.658	645
393.882	635
394.107	653
394.331	661
394.556	668
394.78	657
395.005	657
395.229	670
395.454	679
395.678	682
395.903	689
396.127	677
396.352	688
396.576	667
396.801	694
397.025	678
397.249	701
397.474	727
397.698	694
397.922	711
398.147	710
398.371	731
398.595	765
398.82	778
399.044	799
399.268	837
399.492	875
399.717	928
399.941	897
400.165	881
400.389	867
400.613	823
400.837	820
401.062	829
401.286	777
401.51	776
401.734	785
401.958	780
402.182	776
402.406	776
402.63	800
402.854	785
403.078	778
403.302	797
403.526	767
403.75	788
403.974	784
404.198	775
404.422	821
404.645	822
404.869	810
405.093	797
405.317	796
405.541	778
405.765	811
405.988	806
406.212	808
406.436	816
406.66	849
406.883	824
407.107	860
407.331	880
407.555	891
407.778	895
408.002	859
408.226	893
408.449	907
408.673	873
408.896	861
409.12	855
409.344	875
409.567	846
409.791	855
410.014	846
410.238	833
410.461	840
410.685	848
410.908	847
411.132	855
411.355	823
411.578	842
411.802	814
412.025	790
412.249	819
412.472	849
412.695	798
412.919	819
413.142	795
413.365	806
413.589	808
413.812	821
414.035	839
414.258	800
414.482	803
414.705	819
414.928	823
415.151	798
415.374	805
415.597	839
415.821	809
416.044	798
416.267	791
416.49	784
416.713	782
416.936	811
417.159	811
417.382	783
417.605	766
417.828	801
418.051	810
418.274	813
418.497	761
418.72	778
418.943	791
419.166	846
419.389	886
419.611	897
419.834	854
420.057	791
420.28	806
420.503	787
420.726	785
420.948	761
421.171	795
421.394	800
421.617	781
421.839	800
422.062	805
422.285	811
422.507	828
422.73	809
422.953	814
423.175	801
423.398	824
423.621	800
423.843	837
424.066	821
424.288	811
424.511	808
424.733	830
424.956	815
425.178	808
425.401	828
425.623	813
425.846	824
426.068	821
426.291	825
426.513	799
426.735	798
426.958	796
427.18	789
427.402	804
427.625	803
427.847	787
428.069	796
428.292	776
428.514	764
428.736	811
428.958	814
429.181	770
429.403	777
429.625	752
429.847	779
430.069	785
430.292	781
430.514	783
430.736	790
430.958	776
431.18	791
431.402	774
431.624	769
431.846	789
432.068	752
432.29	783
432.512	783
432.734	812
432.956	807
433.178	812
433.4	819
433.622	807
433.844	853
434.066	832
434.287	821
434.509	826
434.731	843
434.953	837
435.175	832
435.397	837
435.618	806
435.84	835
436.062	820
436.284	803
436.505	802
436.727	795
436.949	829
437.17	795
437.392	804
437.614	789
437.835	788
438.057	791
438.278	769
438.5	780
438.721	779
438.943	796
439.165	787
439.386	807
439.608	793
439.829	824
440.05	822
440.272	813
440.493	804
440.715	793
440.936	809
441.158	845
441.379	819
441.6	840
441.822	870
442.043	861
442.264	851
442.486	827
442.707	843
442.928	830
443.149	833
443.371	863
443.592	877
443.813	889
444.034	869
444.255	875
444.476	853
444.698	910
444.919	902
445.14	1001
445.361	927
445.582	866
445.803	852
446.024	867
446.245	844
446.466	806
446.687	823
446.908	827
447.129	809
447.35	807
447.571	793
447.792	757
448.013	794
448.234	759
448.455	780
448.675	779
448.896	759
449.117	744
449.338	748
449.559	746
449.779	732
450	735
450.221	743
450.442	739
450.662	750
450.883	745
451.104	759
451.324	747
451.545	751
451.766	739
451.986	727
452.207	725
452.428	745
452.648	764
452.869	729
453.089	717
453.31	718
453.53	701
453.751	701
453.971	714
454.192	713
454.412	734
454.633	710
454.853	712
455.073	741
455.294	721
455.514	727
455.734	725
455.955	714
456.175	703
456.395	704
456.616	695
456.836	717
457.056	703
457.276	687
457.497	721
457.717	728
457.937	725
458.157	736
458.377	748
458.598	759
458.818	763
459.038	770
459.258	793
459.478	804
459.698	812
459.918	855
460.138	839
460.358	869
460.578	860
460.798	884
461.018	870
461.238	871
461.458	885
461.678	879
461.898	899
462.118	912
462.338	922
462.558	947
462.777	976
462.997	1029
463.217	1004
463.437	1023
463.657	1002
463.876	978
464.096	996
464.316	960
464.536	967
464.755	941
464.975	935
465.195	892
465.414	878
465.634	837
465.854	852
466.073	805
466.293	831
466.512	791
466.732	807
466.951	803
467.171	780
467.391	803
467.61	800
467.829	801
468.049	807
468.268	764
468.488	767
468.707	783
468.927	761
469.146	784
469.365	779
469.585	769
469.804	791
470.023	801
470.243	808
470.462	802
470.681	768
470.901	768
471.12	788
471.339	812
471.558	823
471.777	798
471.997	803
472.216	779
472.435	788
472.654	781
472.873	769
473.092	784
473.311	789
473.53	785
473.749	762
473.968	758
474.187	761
474.406	790
474.625	798
474.844	772
475.063	783
475.282	799
475.501	808
475.72	795
475.939	805
476.158	828
476.377	800
476.596	789
476.814	820
477.033	821
477.252	813
477.471	826
477.69	843
477.908	889
478.127	886
478.346	905
478.564	902
478.783	883
479.002	922
479.22	929
479.439	914
479.658	903
479.876	878
480.095	940
480.313	930
480.532	920
480.751	925
480.969	911
481.188	911
481.406	912
481.624	897
481.843	932
482.061	889
482.28	901
482.498	888
482.717	875
482.935	908
483.153	900
483.372	932
483.59	938
483.808	914
484.027	902
484.245	907
484.463	924
484.681	919
484.9	939
485.118	912
485.336	959
485.554	916
485.772	931
485.99	931
486.209	913
486.427	925
486.645	920
486.863	947
487.081	915
487.299	939
487.517	965
487.735	939
487.953	931
488.171	974
488.389	943
488.607	957
488.825	907
489.043	917
489.261	933
489.479	956
489.696	930
489.914	925
490.132	948
490.35	947
490.568	951
490.786	949
491.003	963
491.221	963
491.439	984
491.657	989
491.874	987
492.092	982
492.31	986
492.527	989
492.745	1009
492.963	1007
493.18	983
493.398	989
493.615	1000
493.833	1029
494.05	995
494.268	1023
494.485	1020
494.703	1039
494.92	1004
495.138	1028
495.355	1011
495.573	1055
495.79	1071
496.008	1047
496.225	1032
496.442	1026
496.66	1073
496.877	1059
497.094	1111
497.312	1118
497.529	1113
497.746	1155
497.963	1166
498.181	1180
498.398	1216
498.615	1281
498.832	1321
499.049	1379
499.267	1424
499.484	1495
499.701	1572
499.918	1635
500.135	1733
500.352	1800
500.569	1824
500.786	1857
501.003	1765
501.22	1707
501.437	1604
501.654	1544
501.871	1481
502.088	1444
502.305	1388
502.522	1339
502.739	1274
502.956	1243
503.172	1200
503.389	1163
503.606	1157
503.823	1153
504.04	1132
504.256	1088
504.473	1112
504.69	1073
504.907	1067
505.123	1045
505.34	1036
505.557	990
505.773	1003
505.99	964
506.207	925
506.423	941
506.64	934
506.856	927
507.073	925
507.289	927
507.506	911
507.722	914
507.939	900
508.155	873
508.372	897
508.588	903
508.805	899
509.021	861
509.238	877
509.454	848
509.67	846
509.887	847
510.103	823
510.319	826
510.536	838
510.752	825
510.968	828
511.184	794
511.401	835
511.617	812
511.833	832
512.049	811
512.265	836
512.481	834
512.698	827
512.914	799
513.13	826
513.346	816
513.562	797
513.778	831
513.994	804
514.21	825
514.426	835
514.642	839
514.858	823
515.074	840
515.29	846
515.506	843
515.721	843
515.937	823
516.153	835
516.369	854
516.585	883
516.801	909
517.016	917
517.232	941
517.448	936
517.664	967
517.879	941
518.095	931
518.311	944
518.527	902
518.742	895
518.958	883
519.173	885
519.389	846
519.605	862
519.82	864
520.036	864
520.251	809
520.467	795
520.682	820
520.898	806
521.113	791
521.329	808
521.544	781
521.76	791
521.975	793
522.19	752
522.406	747
522.621	775
522.836	749
523.052	789
523.267	756
523.482	780
523.698	757
523.913	755
524.128	751
524.343	763
524.559	771
524.774	745
524.989	750
525.204	769
525.419	744
525.634	743
525.849	734
526.064	729
526.28	758
526.495	728
526.71	715
526.925	720
527.14	726
527.355	743
527.57	733
527.785	703
527.999	728
528.214	731
528.429	703
528.644	705
528.859	739
529.074	733
529.289	723
529.503	731
529.718	723
529.933	723
530.148	730
530.363	712
530.577	689
530.792	692
531.007	738
531.221	701
531.436	712
531.651	715
531.865	704
532.08	694
532.295	747
532.509	701
532.724	697
532.938	729
533.153	707
533.367	731
533.582	722
533.796	703
534.011	723
534.225	700
534.44	691
534.654	692
534.868	685
535.083	699
535.297	688
535.511	709
535.726	679
535.94	696
536.154	711
536.369	661
536.583	675
536.797	668
537.011	665
537.225	686
537.44	684
537.654	667
537.868	670
538.082	672
538.296	664
538.51	655
538.724	677
538.938	671
539.153	684
539.367	698
539.581	663
539.795	652
540.009	678
540.222	672
540.436	647
540.65	651
540.864	663
541.078	672
541.292	672
541.506	657
541.72	682
541.934	664
542.147	703
542.361	679
542.575	669
542.789	646
543.002	641
543.216	647
543.43	653
543.644	663
543.857	657
544.071	659
544.285	656
544.498	663
544.712	659
544.925	669
545.139	688
545.352	673
545.566	668
545.779	641
545.993	660
546.206	682
546.42	661
546.633	687
546.847	686
547.06	715
547.274	670
547.487	663
547.7	666
547.914	675
548.127	665
548.34	689
548.554	661
548.767	658
548.98	681
549.193	671
549.407	660
549.62	677
549.833	651
550.046	657
550.259	653
550.473	657
550.686	689
550.899	668
551.112	681
551.325	643
551.538	642
551.751	641
551.964	639
552.177	667
552.39	643
552.603	651
552.816	681
553.029	686
553.242	659
553.455	680
553.667	699
553.88	685
554.093	666
554.306	661
554.519	671
554.732	638
554.944	633
555.157	608
555.37	637
555.583	634
555.795	625
556.008	591
556.221	614
556.433	608
556.646	583
556.859	592
557.071	587
557.284	597
557.496	584
557.709	556
557.921	611
558.134	565
558.346	576
558.559	595
558.771	587
558.984	575
559.196	576
559.409	558
559.621	580
559.833	552
560.046	554
560.258	573
560.47	571
560.683	577
560.895	561
561.107	568
561.32	554
561.532	579
561.744	569
561.956	573
562.168	556
562.381	588
562.593	565
562.805	542
563.017	568
563.229	557
563.441	569
563.653	587
563.865	571
564.077	545
564.289	613
564.501	582
564.713	598
564.925	592
565.137	612
565.349	593
565.561	624
565.773	634
565.985	649
566.197	664
566.408	639
566.62	667
566.832	716
567.044	702
567.255	709
567.467	715
567.679	717
567.891	728
568.102	725
568.314	709
568.526	684
568.737	659
568.949	622
569.161	613
569.372	596
569.584	576
569.795	592
570.007	574
570.218	560
570.43	553
570.641	563
570.853	546
571.064	542
571.276	519
571.487	524
571.698	501
571.91	508
572.121	497
572.333	499
572.544	502
572.755	475
572.966	460
573.178	473
573.389	471
573.6	468
573.811	460
574.023	485
574.234	454
574.445	452
574.656	456
574.867	462
575.078	438
575.289	439
575.501	452
575.712	433
575.923	445
576.134	425
576.345	463
576.556	449
576.767	434
576.978	456
577.188	419
577.399	427
577.61	432
577.821	429
578.032	418
578.243	400
578.454	414
578.665	402
578.875	416
579.086	412
579.297	389
579.508	407
579.718	413
579.929	398
580.14	400
580.35	396
580.561	391
580.772	395
580.982	402
581.193	377
581.403	401
581.614	390
581.825	403
582.035	389
582.246	381
582.456	400
582.667	395
582.877	395
583.087	370
583.298	403
583.508	380
583.719	385
583.929	389
584.139	387
584.35	378
584.56	356
584.77	395
584.981	372
585.191	371
585.401	345
585.611	381
585.821	375
586.032	356
586.242	366
586.452	387
586.662	369
586.872	382
587.082	366
587.292	391
587.502	375
587.713	341
587.923	367
588.133	359
588.343	377
588.553	367
588.762	363
588.972	356
589.182	369
589.392	384
589.602	376
589.812	379
590.022	376
590.232	372
590.441	371
590.651	370
590.861	369
591.071	391
591.281	368
591.49	381
591.7	379
591.91	371
592.119	366
592.329	378
592.539	388
592.748	399
592.958	372
593.167	395
593.377	403
593.587	396
593.796	391
594.006	395
594.215	392
594.424	400
594.634	376
594.843	391
595.053	356
595.262	355
595.472	384
595.681	365
595.89	368
596.1	368
596.309	365
596.518	351
596.727	349
596.937	329
597.146	333
597.355	352
597.564	326
597.774	341
597.983	329
598.192	324
598.401	322
598.61	314
598.819	319
599.028	317
599.237	335
599.446	320
599.655	317
599.864	331
600.073	317
600.282	317
600.491	319
600.7	303
600.909	314
601.118	337
601.327	302
601.536	299
601.745	303
601.953	319
602.162	288
602.371	296
602.58	277
602.789	294
602.997	303
603.206	327
603.415	288
603.623	295
603.832	302
604.041	292
604.249	311
604.458	293
604.666	280
604.875	295
605.084	296
605.292	293
605.501	294
605.709	290
605.918	278
606.126	281
606.334	290
606.543	280
606.751	297
606.96	284
607.168	280
607.376	288
607.585	294
607.793	292
608.001	295
608.21	273
608.418	273
608.626	283
608.834	299
609.043	276
609.251	278
609.459	278
609.667	281
609.875	280
610.083	273
610.291	282
610.499	275
610.707	281
610.916	268
611.124	273
611.332	262
611.54	271
611.748	265
611.955	269
612.163	271
612.371	279
612.579	283
612.787	275
612.995	265
613.203	263
613.411	289
613.618	286
613.826	292
614.034	275
614.242	260
614.449	267
614.657	255
614.865	270
615.072	272
615.28	263
615.488	275
615.695	279
615.903	272
616.111	269
616.318	286
616.526	269
616.733	259
616.941	274
617.148	260
617.356	263
617.563	267
617.771	269
617.978	251
618.185	275
618.393	253
618.6	267
618.807	254
619.015	288
619.222	256
619.429	243
619.637	250
619.844	250
620.051	253
620.258	265
620.466	257
620.673	237
620.88	265
621.087	236
621.294	259
621.501	246
621.708	256
621.915	253
622.122	248
622.329	231
622.536	261
622.743	253
622.95	265
623.157	249
623.364	243
623.571	265
623.778	238
623.985	226
624.192	248
624.399	230
624.606	249
624.812	244
625.019	253
625.226	231
625.433	233
625.639	234
625.846	240
626.053	229
626.259	216
626.466	243
626.673	240
626.879	231
627.086	230
627.293	229
627.499	226
627.706	235
627.912	227
628.119	228
628.325	231
628.532	223
628.738	219
628.945	229
629.151	224
629.357	222
629.564	220
629.77	198
629.976	208
630.183	227
630.389	229
630.595	226
630.802	217
631.008	216
631.214	228
631.42	225
631.627	210
631.833	207
632.039	224
632.245	228
632.451	227
632.657	222
632.863	207
633.069	203
633.275	214
633.481	193
633.688	196
633.893	218
634.099	209
634.305	201
634.511	206
634.717	188
634.923	217
635.129	209
635.335	198
635.541	216
635.747	205
635.952	199
636.158	187
636.364	206
636.57	210
636.775	200
636.981	199
637.187	205
637.392	200
637.598	188
637.804	186
638.009	199
638.215	195
638.421	197
638.626	197
638.832	193
639.037	188
639.243	187
639.448	190
639.654	192
639.859	186
640.065	188
640.27	209
640.475	185
640.681	183
640.886	181
641.091	197
641.297	198
641.502	212
641.707	191
641.913	208
642.118	189
642.323	183
642.528	196
642.733	196
642.939	208
643.144	192
643.349	187
643.554	200
643.759	197
643.964	189
644.169	183
644.374	191
644.579	188
644.784	187
644.989	210
645.194	197
645.399	179
645.604	173
645.809	202
646.014	198
646.219	191
646.423	209
646.628	192
646.833	201
647.038	179
647.243	191
647.447	198
647.652	184
647.857	186
648.062	192
648.266	199
648.471	192
648.676	204
648.88	189
649.085	196
649.289	202
649.494	187
649.698	194
649.903	203
650.107	169
650.312	182
650.516	193
650.721	188
650.925	190
651.13	180
651.334	181
651.539	175
651.743	170
651.947	191
652.152	170
652.356	173
652.56	180
652.764	178
652.969	160
653.173	161
653.377	165
653.581	169
653.785	171
653.99	144
654.194	153
654.398	155
654.602	133
654.806	164
655.01	151
655.214	141
655.418	164
655.622	149
655.826	143
656.03	158
656.234	134
656.438	157
656.642	153
656.846	153
657.049	138
657.253	130
657.457	133
657.661	134
657.865	128
658.068	131
658.272	126
658.476	115
658.68	131
658.883	129
659.087	119
659.291	119
659.494	102
659.698	104
659.901	115
660.105	105
660.309	113
660.512	108
660.716	98
660.919	105
661.123	107
661.326	95
661.53	104
661.733	94
661.936	96
662.14	76
662.343	91
662.546	98
662.75	100
662.953	98
663.156	80
663.36	87
663.563	86
663.766	74
663.969	81
664.173	77
664.376	89
664.579	77
664.782	84
664.985	76
665.188	84
665.391	85
665.594	93
665.797	82
666	68
666.203	87
666.406	85
666.609	94
666.812	81
667.015	94
667.218	100
667.421	91
667.624	80
667.827	91
668.03	87
668.232	78
668.435	91
668.638	76
668.841	91
669.043	91
669.246	87
669.449	94
669.651	77
669.854	79
670.057	84
670.259	83
670.462	69
670.665	87
670.867	87
671.07	87
671.272	97
671.475	91
671.677	79
671.88	99
672.082	100
672.284	104
672.487	85
672.689	85
672.892	99
