Data from Ni(NO3)2@0.0625M.TitratingCurve.Agarose3%dH2O.NegLispCup.LampEnergy10.LIBS07252019_HRD10591_18-13-26-569.txt Node
Date: Thu Jul 25 18:13:26 EDT 2019
User: cochatt
Spectrometer: HR+D1059
Trigger mode: 1
Integration Time (sec): 1.000000E-1
Scans to average: 1
Electric dark correction enabled: true
Nonlinearity correction enabled: false
Boxcar width: 0
XAxis mode: Wavelengths
Number of Pixels in Spectrum: 2048
>>>>>Begin Spectral Data<<<<<
223.165	-13
223.4	-13
223.635	-13
223.869	-20
224.104	-17
224.338	-18
224.573	-7
224.808	-10
225.042	-16
225.277	1
225.511	-3
225.746	8
225.98	7
226.215	14
226.449	14
226.683	11
226.918	25
227.152	24
227.387	44
227.621	41
227.856	51
228.09	44
228.324	58
228.559	49
228.793	66
229.027	96
229.262	91
229.496	102
229.73	103
229.964	101
230.199	115
230.433	125
230.667	123
230.901	118
231.136	126
231.37	123
231.604	125
231.838	137
232.072	122
232.306	133
232.541	118
232.775	131
233.009	129
233.243	130
233.477	140
233.711	120
233.945	133
234.179	127
234.413	129
234.647	132
234.881	121
235.115	140
235.349	135
235.583	134
235.817	144
236.051	135
236.285	122
236.519	126
236.753	135
236.987	142
237.221	146
237.455	135
237.689	124
237.922	129
238.156	139
238.39	128
238.624	139
238.858	142
239.091	149
239.325	143
239.559	165
239.793	156
240.027	143
240.26	154
240.494	157
240.728	157
240.961	154
241.195	163
241.429	172
241.662	169
241.896	153
242.13	162
242.363	167
242.597	175
242.83	181
243.064	156
243.298	172
243.531	165
243.765	163
243.998	177
244.232	179
244.465	173
244.699	169
244.932	188
245.166	179
245.399	194
245.633	192
245.866	196
246.099	177
246.333	193
246.566	183
246.8	201
247.033	183
247.266	189
247.5	196
247.733	197
247.966	192
248.2	197
248.433	192
248.666	206
248.899	202
249.133	221
249.366	213
249.599	196
249.832	212
250.066	203
250.299	206
250.532	206
250.765	217
250.998	203
251.231	215
251.465	228
251.698	214
251.931	212
252.164	204
252.397	216
252.63	222
252.863	217
253.096	224
253.329	206
253.562	213
253.795	227
254.028	222
254.261	232
254.494	222
254.727	218
254.96	226
255.193	225
255.426	219
255.659	236
255.892	242
256.124	238
256.357	234
256.59	241
256.823	233
257.056	236
257.289	259
257.521	264
257.754	234
257.987	248
258.22	247
258.452	248
258.685	243
258.918	251
259.151	264
259.383	237
259.616	238
259.849	258
260.081	260
260.314	244
260.547	267
260.779	267
261.012	258
261.244	275
261.477	263
261.71	261
261.942	274
262.175	265
262.407	271
262.64	254
262.872	284
263.105	279
263.337	263
263.57	266
263.802	289
264.035	286
264.267	280
264.499	285
264.732	297
264.964	291
265.197	291
265.429	286
265.661	288
265.894	299
266.126	302
266.358	279
266.591	269
266.823	301
267.055	280
267.287	302
267.52	295
267.752	300
267.984	295
268.216	292
268.448	292
268.681	299
268.913	319
269.145	309
269.377	324
269.609	293
269.841	294
270.073	311
270.306	319
270.538	312
270.77	301
271.002	300
271.234	297
271.466	296
271.698	310
271.93	315
272.162	305
272.394	321
272.626	301
272.858	309
273.09	310
273.322	331
273.553	321
273.785	327
274.017	319
274.249	321
274.481	335
274.713	333
274.945	324
275.176	329
275.408	307
275.64	326
275.872	324
276.104	348
276.335	331
276.567	343
276.799	336
277.031	332
277.262	343
277.494	357
277.726	343
277.957	352
278.189	340
278.421	363
278.652	359
278.884	357
279.115	333
279.347	332
279.579	338
279.81	351
280.042	348
280.273	364
280.505	365
280.736	365
280.968	369
281.199	363
281.431	361
281.662	378
281.894	378
282.125	382
282.356	347
282.588	377
282.819	381
283.051	375
283.282	383
283.513	383
283.745	373
283.976	392
284.207	395
284.439	402
284.67	375
284.901	400
285.132	370
285.364	393
285.595	387
285.826	377
286.057	398
286.288	408
286.52	386
286.751	398
286.982	390
287.213	381
287.444	403
287.675	406
287.906	394
288.138	403
288.369	421
288.6	405
288.831	403
289.062	407
289.293	413
289.524	410
289.755	411
289.986	409
290.217	392
290.448	383
290.679	421
290.91	417
291.141	413
291.371	409
291.602	415
291.833	403
292.064	417
292.295	412
292.526	420
292.757	448
292.987	426
293.218	417
293.449	412
293.68	413
293.91	415
294.141	453
294.372	412
294.603	390
294.833	433
295.064	433
295.295	429
295.525	425
295.756	425
295.987	427
296.217	440
296.448	441
296.679	421
296.909	437
297.14	417
297.37	435
297.601	444
297.831	475
298.062	448
298.292	478
298.523	476
298.753	454
298.984	472
299.214	459
299.445	444
299.675	464
299.905	438
300.136	456
300.366	457
300.597	470
300.827	477
301.057	482
301.288	470
301.518	468
301.748	486
301.979	481
302.209	484
302.439	487
302.669	480
302.9	461
303.13	468
303.36	458
303.59	440
303.82	463
304.051	462
304.281	449
304.511	479
304.741	467
304.971	473
305.201	486
305.431	487
305.661	459
305.891	462
306.121	461
306.352	465
306.582	466
306.812	476
307.042	462
307.272	466
307.502	448
307.731	471
307.961	467
308.191	455
308.421	466
308.651	453
308.881	460
309.111	461
309.341	449
309.571	465
309.8	464
310.03	443
310.26	455
310.49	433
310.72	467
310.949	443
311.179	455
311.409	456
311.639	461
311.868	491
312.098	476
312.328	459
312.557	480
312.787	474
313.017	486
313.246	456
313.476	502
313.706	483
313.935	465
314.165	490
314.394	469
314.624	462
314.853	513
315.083	483
315.312	487
315.542	470
315.771	466
316.001	481
316.23	472
316.46	468
316.689	476
316.919	462
317.148	464
317.377	470
317.607	478
317.836	467
318.065	475
318.295	476
318.524	479
318.753	465
318.983	483
319.212	477
319.441	499
319.67	451
319.9	476
320.129	478
320.358	492
320.587	465
320.816	459
321.046	479
321.275	473
321.504	469
321.733	490
321.962	499
322.191	496
322.42	478
322.649	473
322.878	482
323.108	470
323.337	484
323.566	484
323.795	471
324.024	475
324.253	491
324.482	496
324.71	498
324.939	495
325.168	470
325.397	475
325.626	514
325.855	510
326.084	524
326.313	544
326.542	526
326.77	518
326.999	539
327.228	521
327.457	519
327.686	505
327.914	529
328.143	528
328.372	510
328.6	540
328.829	534
329.058	539
329.287	505
329.515	528
329.744	506
329.972	533
330.201	546
330.43	528
330.658	519
330.887	538
331.115	551
331.344	564
331.572	559
331.801	582
332.03	598
332.258	590
332.486	605
332.715	634
332.943	665
333.172	684
333.4	742
333.629	748
333.857	734
334.085	719
334.314	685
334.542	672
334.771	682
334.999	663
335.227	665
335.455	675
335.684	659
335.912	654
336.14	643
336.369	644
336.597	634
336.825	655
337.053	641
337.281	624
337.51	602
337.738	617
337.966	577
338.194	617
338.422	582
338.65	575
338.878	574
339.106	587
339.334	571
339.562	573
339.79	547
340.018	563
340.246	547
340.474	541
340.702	555
340.93	543
341.158	570
341.386	525
341.614	558
341.842	531
342.07	543
342.298	559
342.526	538
342.754	575
342.981	526
343.209	563
343.437	586
343.665	604
343.893	671
344.12	737
344.348	661
344.576	636
344.804	601
345.031	570
345.259	571
345.487	562
345.714	562
345.942	549
346.17	546
346.397	558
346.625	555
346.853	557
347.08	536
347.308	542
347.535	580
347.763	563
347.99	575
348.218	566
348.445	568
348.673	546
348.9	551
349.128	547
349.355	546
349.583	532
349.81	526
350.037	540
350.265	514
350.492	518
350.72	513
350.947	514
351.174	507
351.402	518
351.629	513
351.856	511
352.083	539
352.311	511
352.538	501
352.765	518
352.992	509
353.22	505
353.447	510
353.674	508
353.901	506
354.128	530
354.355	511
354.583	515
354.81	525
355.037	506
355.264	519
355.491	524
355.718	526
355.945	516
356.172	516
356.399	530
356.626	525
356.853	527
357.08	526
357.307	510
357.534	525
357.761	518
357.988	535
358.215	511
358.441	510
358.668	542
358.895	516
359.122	524
359.349	502
359.576	523
359.802	527
360.029	543
360.256	526
360.483	535
360.709	523
360.936	524
361.163	502
361.39	486
361.616	538
361.843	527
362.07	538
362.296	529
362.523	510
362.749	525
362.976	539
363.203	534
363.429	494
363.656	521
363.882	489
364.109	504
364.335	500
364.562	526
364.788	532
365.015	504
365.241	498
365.468	522
365.694	527
365.92	511
366.147	516
366.373	511
366.599	524
366.826	517
367.052	499
367.278	531
367.505	522
367.731	538
367.957	524
368.184	535
368.41	519
368.636	523
368.862	550
369.089	534
369.315	529
369.541	531
369.767	548
369.993	523
370.219	547
370.445	536
370.672	569
370.898	551
371.124	558
371.35	559
371.576	568
371.802	557
372.028	553
372.254	570
372.48	566
372.706	605
372.932	602
373.158	587
373.384	597
373.61	574
373.835	565
374.061	563
374.287	558
374.513	583
374.739	610
374.965	617
375.191	631
375.416	627
375.642	617
375.868	606
376.094	609
376.319	577
376.545	581
376.771	577
376.997	586
377.222	571
377.448	581
377.674	567
377.899	561
378.125	551
378.35	563
378.576	566
378.802	570
379.027	558
379.253	552
379.478	537
379.704	535
379.929	569
380.155	543
380.38	527
380.606	578
380.831	555
381.057	542
381.282	545
381.507	561
381.733	576
381.958	575
382.184	585
382.409	596
382.634	574
382.86	606
383.085	599
383.31	596
383.535	641
383.761	635
383.986	636
384.211	653
384.436	668
384.662	679
384.887	680
385.112	683
385.337	702
385.562	694
385.787	676
386.013	710
386.238	672
386.463	681
386.688	666
386.913	671
387.138	668
387.363	684
387.588	690
387.813	676
388.038	676
388.263	677
388.488	647
388.713	679
388.938	672
389.163	639
389.387	665
389.612	666
389.837	643
390.062	662
390.287	666
390.512	671
390.736	658
390.961	679
391.186	686
391.411	715
391.636	728
391.86	757
392.085	771
392.31	762
392.534	739
392.759	702
392.984	692
393.208	709
393.433	725
393.658	724
393.882	725
394.107	717
394.331	734
394.556	737
394.78	737
395.005	747
395.229	697
395.454	742
395.678	771
395.903	783
396.127	755
396.352	707
396.576	703
396.801	698
397.025	739
397.249	732
397.474	727
397.698	765
397.922	751
398.147	728
398.371	742
398.595	772
398.82	798
399.044	848
399.268	983
399.492	1162
399.717	1338
399.941	1299
400.165	1147
400.389	1019
400.613	938
400.837	883
401.062	866
401.286	846
401.51	827
401.734	819
401.958	835
402.182	848
402.406	865
402.63	906
402.854	911
403.078	939
403.302	971
403.526	995
403.75	999
403.974	996
404.198	1004
404.422	1011
404.645	999
404.869	983
405.093	997
405.317	954
405.541	950
405.765	936
405.988	917
406.212	946
406.436	924
406.66	951
406.883	971
407.107	1029
407.331	1090
407.555	1131
407.778	1081
408.002	1098
408.226	1049
408.449	1019
408.673	985
408.896	970
409.12	967
409.344	994
409.567	1000
409.791	1009
410.014	990
410.238	990
410.461	985
410.685	990
410.908	966
411.132	888
411.355	916
411.578	877
411.802	881
412.025	875
412.249	923
412.472	921
412.695	866
412.919	826
413.142	863
413.365	855
413.589	861
413.812	819
414.035	831
414.258	858
414.482	846
414.705	861
414.928	873
415.151	859
415.374	856
415.597	823
415.821	861
416.044	829
416.267	834
416.49	803
416.713	840
416.936	819
417.159	852
417.382	838
417.605	821
417.828	855
418.051	855
418.274	855
418.497	847
418.72	893
418.943	862
419.166	899
419.389	965
419.611	974
419.834	934
420.057	899
420.28	847
420.503	863
420.726	832
420.948	810
421.171	815
421.394	857
421.617	843
421.839	857
422.062	887
422.285	844
422.507	885
422.73	885
422.953	869
423.175	886
423.398	918
423.621	906
423.843	908
424.066	929
424.288	918
424.511	905
424.733	899
424.956	884
425.178	866
425.401	891
425.623	853
425.846	812
426.068	837
426.291	799
426.513	779
426.735	778
426.958	809
427.18	770
427.402	772
427.625	774
427.847	779
428.069	757
428.292	753
428.514	747
428.736	731
428.958	760
429.181	723
429.403	729
429.625	732
429.847	740
430.069	751
430.292	731
430.514	706
430.736	724
430.958	736
431.18	743
431.402	728
431.624	748
431.846	741
432.068	777
432.29	806
432.512	762
432.734	742
432.956	751
433.178	760
433.4	748
433.622	748
433.844	771
434.066	777
434.287	773
434.509	805
434.731	855
434.953	842
435.175	883
435.397	872
435.618	817
435.84	821
436.062	773
436.284	748
436.505	763
436.727	740
436.949	779
437.17	787
437.392	773
437.614	761
437.835	709
438.057	743
438.278	738
438.5	714
438.721	746
438.943	739
439.165	700
439.386	737
439.608	777
439.829	743
440.05	757
440.272	792
440.493	773
440.715	787
440.936	801
441.158	798
441.379	843
441.6	887
441.822	872
442.043	875
442.264	861
442.486	865
442.707	850
442.928	856
443.149	858
443.371	833
443.592	855
443.813	861
444.034	875
444.255	903
444.476	957
444.698	1047
444.919	1097
445.14	1112
445.361	988
445.582	883
445.803	841
446.024	791
446.245	782
446.466	773
446.687	790
446.908	771
447.129	746
447.35	739
447.571	753
447.792	730
448.013	751
448.234	713
448.455	721
448.675	716
448.896	697
449.117	704
449.338	690
449.559	692
449.779	723
450	665
450.221	697
450.442	712
450.662	701
450.883	723
451.104	754
451.324	748
451.545	739
451.766	733
451.986	697
452.207	722
452.428	720
452.648	720
452.869	682
453.089	723
453.31	724
453.53	716
453.751	689
453.971	693
454.192	698
454.412	696
454.633	677
454.853	663
455.073	668
455.294	665
455.514	660
455.734	669
455.955	661
456.175	669
456.395	687
456.616	661
456.836	668
457.056	649
457.276	637
457.497	654
457.717	662
457.937	660
458.157	698
458.377	679
458.598	681
458.818	708
459.038	735
459.258	746
459.478	804
459.698	796
459.918	812
460.138	869
460.358	883
460.578	919
460.798	926
461.018	941
461.238	889
461.458	885
461.678	909
461.898	927
462.118	917
462.338	955
462.558	991
462.777	1024
462.997	1176
463.217	1221
463.437	1283
463.657	1162
463.876	1083
464.096	1075
464.316	1091
464.536	1118
464.755	1071
464.975	1001
465.195	958
465.414	874
465.634	833
465.854	805
466.073	781
466.293	773
466.512	755
466.732	734
466.951	730
467.171	745
467.391	752
467.61	737
467.829	763
468.049	742
468.268	733
468.488	705
468.707	698
468.927	697
469.146	701
469.365	710
469.585	722
469.804	711
470.023	757
470.243	771
470.462	751
470.681	809
470.901	770
471.12	779
471.339	751
471.558	727
471.777	716
471.997	736
472.216	694
472.435	717
472.654	706
472.873	726
473.092	682
473.311	705
473.53	677
473.749	664
473.968	685
474.187	679
474.406	696
474.625	693
474.844	699
475.063	687
475.282	687
475.501	694
475.72	714
475.939	695
476.158	707
476.377	724
476.596	707
476.814	712
477.033	715
477.252	733
477.471	746
477.69	780
477.908	804
478.127	856
478.346	825
478.564	835
478.783	846
479.002	871
479.22	885
479.439	860
479.658	852
479.876	876
480.095	868
480.313	903
480.532	966
480.751	961
480.969	876
481.188	876
481.406	822
481.624	801
481.843	810
482.061	789
482.28	788
482.498	776
482.717	769
482.935	762
483.153	775
483.372	769
483.59	795
483.808	763
484.027	795
484.245	790
484.463	798
484.681	811
484.9	837
485.118	815
485.336	795
485.554	821
485.772	842
485.99	847
486.209	866
486.427	854
486.645	839
486.863	832
487.081	844
487.299	841
487.517	826
487.735	814
487.953	844
488.171	837
488.389	819
488.607	822
488.825	818
489.043	801
489.261	835
489.479	824
489.696	833
489.914	826
490.132	805
490.35	849
490.568	815
490.786	844
491.003	838
491.221	827
491.439	818
491.657	844
491.874	830
492.092	819
492.31	828
492.527	868
492.745	858
492.963	851
493.18	862
493.398	853
493.615	856
493.833	865
494.05	857
494.268	883
494.485	881
494.703	892
494.92	898
495.138	867
495.355	857
495.573	889
495.79	882
496.008	887
496.225	865
496.442	894
496.66	897
496.877	903
497.094	934
497.312	922
497.529	934
497.746	972
497.963	977
498.181	1015
498.398	1081
498.615	1158
498.832	1227
499.049	1309
499.267	1409
499.484	1580
499.701	1761
499.918	1964
500.135	2267
500.352	2720
500.569	2851
500.786	2797
501.003	2605
501.22	2259
501.437	1941
501.654	1681
501.871	1541
502.088	1368
502.305	1295
502.522	1240
502.739	1195
502.956	1110
503.172	1091
503.389	1040
503.606	1007
503.823	971
504.04	969
504.256	991
504.473	1035
504.69	1075
504.907	1048
505.123	974
505.34	911
505.557	872
505.773	853
505.99	845
506.207	791
506.423	823
506.64	798
506.856	793
507.073	771
507.289	776
507.506	783
507.722	788
507.939	775
508.155	777
508.372	751
508.588	748
508.805	747
509.021	715
509.238	742
509.454	726
509.67	733
509.887	731
510.103	731
510.319	709
510.536	732
510.752	708
510.968	670
511.184	710
511.401	717
511.617	687
511.833	697
512.049	713
512.265	719
512.481	708
512.698	708
512.914	699
513.13	715
513.346	706
513.562	701
513.778	706
513.994	725
514.21	707
514.426	695
514.642	713
514.858	739
515.074	726
515.29	753
515.506	726
515.721	743
515.937	754
516.153	755
516.369	778
516.585	839
516.801	862
517.016	883
517.232	895
517.448	942
517.664	975
517.879	1042
518.095	1015
518.311	995
518.527	940
518.742	895
518.958	855
519.173	809
519.389	812
519.605	783
519.82	762
520.036	756
520.251	745
520.467	718
520.682	728
520.898	711
521.113	736
521.329	710
521.544	732
521.76	713
521.975	690
522.19	713
522.406	665
522.621	686
522.836	677
523.052	664
523.267	656
523.482	677
523.698	658
523.913	663
524.128	644
524.343	676
524.559	668
524.774	665
524.989	662
525.204	678
525.419	670
525.634	644
525.849	678
526.064	660
526.28	660
526.495	642
526.71	663
526.925	671
527.14	634
527.355	673
527.57	654
527.785	658
527.999	660
528.214	667
528.429	653
528.644	685
528.859	645
529.074	649
529.289	633
529.503	660
529.718	647
529.933	629
530.148	680
530.363	646
530.577	643
530.792	653
531.007	667
531.221	673
531.436	633
531.651	648
531.865	671
532.08	666
532.295	646
532.509	651
532.724	631
532.938	634
533.153	655
533.367	660
533.582	639
533.796	659
534.011	635
534.225	636
534.44	643
534.654	636
534.868	635
535.083	632
535.297	633
535.511	628
535.726	639
535.94	629
536.154	626
536.369	638
536.583	613
536.797	607
537.011	608
537.225	608
537.44	594
537.654	596
537.868	595
538.082	589
538.296	583
538.51	596
538.724	591
538.938	598
539.153	583
539.367	597
539.581	617
539.795	596
540.009	600
540.222	594
540.436	584
540.65	580
540.864	568
541.078	591
541.292	598
541.506	587
541.72	589
541.934	584
542.147	609
542.361	588
542.575	586
542.789	571
543.002	578
543.216	590
543.43	551
543.644	569
543.857	584
544.071	575
544.285	574
544.498	564
544.712	583
544.925	593
545.139	593
545.352	590
545.566	597
545.779	613
545.993	588
546.206	588
546.42	583
546.633	620
546.847	594
547.06	575
547.274	577
547.487	581
547.7	614
547.914	588
548.127	591
548.34	611
548.554	599
548.767	602
548.98	586
549.193	597
549.407	616
549.62	621
549.833	618
550.046	628
550.259	587
550.473	588
550.686	585
550.899	571
551.112	598
551.325	556
551.538	588
551.751	577
551.964	620
552.177	594
552.39	569
552.603	615
552.816	622
553.029	669
553.242	635
553.455	661
553.667	663
553.88	658
554.093	656
554.306	635
554.519	591
554.732	600
554.944	599
555.157	583
555.37	579
555.583	587
555.795	557
556.008	531
556.221	535
556.433	531
556.646	515
556.859	531
557.071	522
557.284	509
557.496	516
557.709	505
557.921	508
558.134	511
558.346	522
558.559	521
558.771	494
558.984	492
559.196	518
559.409	499
559.621	516
559.833	497
560.046	504
560.258	499
560.47	478
560.683	488
560.895	474
561.107	483
561.32	492
561.532	509
561.744	499
561.956	502
562.168	485
562.381	491
562.593	498
562.805	494
563.017	509
563.229	490
563.441	511
563.653	517
563.865	499
564.077	503
564.289	533
564.501	513
564.713	527
564.925	549
565.137	545
565.349	557
565.561	556
565.773	607
565.985	600
566.197	638
566.408	675
566.62	759
566.832	823
567.044	835
567.255	829
567.467	837
567.679	900
567.891	989
568.102	1042
568.314	996
568.526	849
568.737	781
568.949	713
569.161	652
569.372	610
569.584	565
569.795	558
570.007	525
570.218	519
570.43	534
570.641	513
570.853	507
571.064	519
571.276	533
571.487	523
571.698	475
571.91	484
572.121	435
572.333	447
572.544	433
572.755	430
572.966	433
573.178	449
573.389	431
573.6	421
573.811	418
574.023	402
574.234	426
574.445	443
574.656	402
574.867	409
575.078	414
575.289	421
575.501	410
575.712	402
575.923	410
576.134	419
576.345	394
576.556	380
576.767	383
576.978	402
577.188	408
577.399	386
577.61	359
577.821	387
578.032	379
578.243	382
578.454	388
578.665	363
578.875	379
579.086	364
579.297	376
579.508	387
579.718	377
579.929	378
580.14	375
580.35	357
580.561	381
580.772	367
580.982	377
581.193	361
581.403	358
581.614	366
581.825	350
582.035	345
582.246	354
582.456	360
582.667	363
582.877	356
583.087	353
583.298	345
583.508	341
583.719	355
583.929	372
584.139	349
584.35	331
584.56	353
584.77	359
584.981	353
585.191	347
585.401	340
585.611	354
585.821	346
586.032	331
586.242	338
586.452	332
586.662	345
586.872	348
587.082	348
587.292	345
587.502	341
587.713	337
587.923	341
588.133	327
588.343	338
588.553	327
588.762	352
588.972	333
589.182	337
589.392	327
589.602	342
589.812	354
590.022	340
590.232	339
590.441	346
590.651	355
590.861	357
591.071	363
591.281	354
591.49	360
591.7	347
591.91	365
592.119	362
592.329	355
592.539	384
592.748	390
592.958	405
593.167	411
593.377	429
593.587	426
593.796	444
594.006	424
594.215	444
594.424	444
594.634	422
594.843	395
595.053	396
595.262	392
595.472	391
595.681	349
595.89	349
596.1	350
596.309	364
596.518	326
596.727	323
596.937	329
597.146	313
597.355	302
597.564	313
597.774	312
597.983	287
598.192	313
598.401	291
598.61	297
598.819	301
599.028	306
599.237	273
599.446	287
599.655	287
599.864	312
600.073	284
600.282	300
600.491	287
600.7	277
600.909	283
601.118	285
601.327	278
601.536	279
601.745	296
601.953	296
602.162	292
602.371	282
602.58	258
602.789	283
602.997	295
603.206	277
603.415	291
603.623	287
603.832	281
604.041	293
604.249	295
604.458	275
604.666	278
604.875	278
605.084	260
605.292	272
605.501	271
605.709	268
605.918	283
606.126	278
606.334	263
606.543	273
606.751	270
606.96	258
607.168	269
607.376	273
607.585	270
607.793	272
608.001	275
608.21	255
608.418	268
608.626	253
608.834	269
609.043	268
609.251	263
609.459	261
609.667	255
609.875	277
610.083	248
610.291	269
610.499	257
610.707	251
610.916	270
611.124	255
611.332	258
611.54	272
611.748	247
611.955	268
612.163	257
612.371	257
612.579	252
612.787	257
612.995	249
613.203	241
613.411	251
613.618	260
613.826	260
614.034	242
614.242	243
614.449	256
614.657	261
614.865	255
615.072	268
615.28	248
615.488	263
615.695	229
615.903	257
616.111	238
616.318	267
616.526	253
616.733	245
616.941	245
617.148	241
617.356	267
617.563	246
617.771	258
617.978	257
618.185	262
618.393	265
618.6	269
618.807	255
619.015	262
619.222	267
619.429	235
619.637	242
619.844	250
620.051	246
620.258	247
620.466	243
620.673	229
620.88	230
621.087	245
621.294	259
621.501	246
621.708	246
621.915	239
622.122	222
622.329	248
622.536	242
622.743	234
622.95	232
623.157	219
623.364	232
623.571	215
623.778	214
623.985	254
624.192	208
624.399	228
624.606	238
624.812	213
625.019	219
625.226	228
625.433	235
625.639	230
625.846	224
626.053	208
626.259	223
626.466	217
626.673	218
626.879	216
627.086	204
627.293	205
627.499	217
627.706	227
627.912	216
628.119	212
628.325	210
628.532	210
628.738	209
628.945	218
629.151	206
629.357	208
629.564	209
629.77	231
629.976	197
630.183	191
630.389	187
630.595	207
630.802	197
631.008	201
631.214	208
631.42	206
631.627	203
631.833	203
632.039	185
632.245	190
632.451	196
632.657	201
632.863	205
633.069	199
633.275	200
633.481	198
633.688	197
633.893	184
634.099	199
634.305	204
634.511	203
634.717	181
634.923	190
635.129	186
635.335	184
635.541	187
635.747	186
635.952	197
636.158	181
636.364	175
636.57	193
636.775	169
636.981	197
637.187	179
637.392	194
637.598	179
637.804	169
638.009	185
638.215	165
638.421	177
638.626	184
638.832	166
639.037	178
639.243	182
639.448	181
639.654	183
639.859	165
640.065	169
640.27	185
640.475	171
640.681	180
640.886	168
641.091	178
641.297	175
641.502	165
641.707	177
641.913	182
642.118	175
642.323	173
642.528	186
642.733	188
642.939	171
643.144	186
643.349	172
643.554	174
643.759	181
643.964	170
644.169	172
644.374	179
644.579	173
644.784	179
644.989	183
645.194	185
645.399	172
645.604	164
645.809	172
646.014	172
646.219	176
646.423	169
646.628	176
646.833	159
647.038	178
647.243	171
647.447	186
647.652	178
647.857	187
648.062	184
648.266	194
648.471	181
648.676	185
648.88	195
649.085	169
649.289	167
649.494	167
649.698	170
649.903	177
650.107	158
650.312	171
650.516	167
650.721	167
650.925	171
651.13	159
651.334	153
651.539	152
651.743	145
651.947	147
652.152	159
652.356	144
652.56	163
652.764	149
652.969	143
653.173	156
653.377	143
653.581	145
653.785	135
653.99	144
654.194	136
654.398	141
654.602	138
654.806	127
655.01	143
655.214	123
655.418	131
655.622	127
655.826	130
656.03	114
656.234	126
656.438	130
656.642	132
656.846	124
657.049	128
657.253	127
657.457	99
657.661	106
657.865	108
658.068	110
658.272	105
658.476	107
658.68	98
658.883	105
659.087	85
659.291	91
659.494	104
659.698	95
659.901	107
660.105	94
660.309	87
660.512	98
660.716	100
660.919	106
661.123	95
661.326	89
661.53	97
661.733	92
661.936	88
662.14	84
662.343	97
662.546	95
662.75	82
662.953	93
663.156	85
663.36	84
663.563	100
663.766	94
663.969	88
664.173	76
664.376	88
664.579	83
664.782	69
664.985	81
665.188	85
665.391	75
665.594	77
665.797	83
666	84
666.203	98
666.406	78
666.609	85
666.812	71
667.015	76
667.218	76
667.421	82
667.624	73
667.827	74
668.03	79
668.232	77
668.435	83
668.638	73
668.841	90
669.043	83
669.246	89
669.449	78
669.651	79
669.854	78
670.057	86
670.259	89
670.462	72
670.665	82
670.867	70
671.07	78
671.272	103
671.475	76
671.677	91
671.88	73
672.082	85
672.284	95
672.487	81
672.689	88
672.892	74
