Data from WStandard_LampEnergy10_LIBS07252019.E.O._I.C._HRD10591_15-53-54-928.txt Node
Date: Thu Jul 25 15:53:54 EDT 2019
User: cochatt
Spectrometer: HR+D1059
Trigger mode: 1
Integration Time (sec): 1.000000E-1
Scans to average: 1
Electric dark correction enabled: true
Nonlinearity correction enabled: false
Boxcar width: 0
XAxis mode: Wavelengths
Number of Pixels in Spectrum: 2048
>>>>>Begin Spectral Data<<<<<
223.165	-20
223.4	-20
223.635	-20
223.869	-18
224.104	-21
224.338	-17
224.573	-16
224.808	-18
225.042	-10
225.277	-13
225.511	7
225.746	19
225.98	11
226.215	9
226.449	19
226.683	13
226.918	20
227.152	35
227.387	45
227.621	42
227.856	37
228.09	53
228.324	59
228.559	51
228.793	86
229.027	132
229.262	133
229.496	165
229.73	160
229.964	182
230.199	155
230.433	164
230.667	163
230.901	175
231.136	174
231.37	188
231.604	188
231.838	175
232.072	165
232.306	180
232.541	175
232.775	198
233.009	210
233.243	217
233.477	184
233.711	195
233.945	192
234.179	183
234.413	223
234.647	216
234.881	199
235.115	183
235.349	190
235.583	189
235.817	197
236.051	205
236.285	203
236.519	216
236.753	225
236.987	239
237.221	230
237.455	251
237.689	227
237.922	228
238.156	217
238.39	224
238.624	246
238.858	248
239.091	267
239.325	282
239.559	295
239.793	305
240.027	311
240.26	309
240.494	253
240.728	223
240.961	231
241.195	261
241.429	261
241.662	276
241.896	251
242.13	254
242.363	270
242.597	283
242.83	283
243.064	278
243.298	304
243.531	281
243.765	294
243.998	297
244.232	267
244.465	240
244.699	271
244.932	288
245.166	330
245.399	285
245.633	275
245.866	273
246.099	307
246.333	303
246.566	292
246.8	319
247.033	351
247.266	330
247.5	326
247.733	327
247.966	336
248.2	349
248.433	358
248.666	360
248.899	405
249.133	443
249.366	472
249.599	404
249.832	349
250.066	356
250.299	365
250.532	364
250.765	331
250.998	336
251.231	343
251.465	346
251.698	345
251.931	333
252.164	354
252.397	356
252.63	353
252.863	330
253.096	346
253.329	351
253.562	360
253.795	379
254.028	376
254.261	340
254.494	348
254.727	346
254.96	355
255.193	389
255.426	436
255.659	454
255.892	465
256.124	392
256.357	351
256.59	421
256.823	411
257.056	430
257.289	474
257.521	489
257.754	463
257.987	454
258.22	492
258.452	455
258.685	401
258.918	383
259.151	394
259.383	366
259.616	334
259.849	372
260.081	419
260.314	446
260.547	455
260.779	481
261.012	462
261.244	412
261.477	400
261.71	417
261.942	399
262.175	394
262.407	421
262.64	377
262.872	375
263.105	382
263.337	381
263.57	384
263.802	375
264.035	355
264.267	362
264.499	356
264.732	384
264.964	382
265.197	407
265.429	422
265.661	444
265.894	505
266.126	484
266.358	467
266.591	476
266.823	490
267.055	461
267.287	460
267.52	440
267.752	436
267.984	440
268.216	456
268.448	486
268.681	458
268.913	424
269.145	403
269.377	428
269.609	452
269.841	527
270.073	581
270.306	609
270.538	643
270.77	541
271.002	489
271.234	475
271.466	478
271.698	535
271.93	592
272.162	599
272.394	553
272.626	487
272.858	473
273.09	422
273.322	414
273.553	421
273.785	414
274.017	425
274.249	438
274.481	421
274.713	405
274.945	396
275.176	435
275.408	427
275.64	415
275.872	416
276.104	444
276.335	489
276.567	552
276.799	519
277.031	485
277.262	490
277.494	511
277.726	538
277.957	504
278.189	485
278.421	439
278.652	451
278.884	432
279.115	447
279.347	462
279.579	427
279.81	414
280.042	492
280.273	525
280.505	475
280.736	512
280.968	472
281.199	424
281.431	409
281.662	412
281.894	450
282.125	443
282.356	462
282.588	444
282.819	464
283.051	502
283.282	523
283.513	510
283.745	452
283.976	421
284.207	429
284.439	433
284.67	467
284.901	453
285.132	459
285.364	452
285.595	460
285.826	451
286.057	459
286.288	448
286.52	475
286.751	513
286.982	500
287.213	461
287.444	444
287.675	440
287.906	475
288.138	502
288.369	480
288.6	467
288.831	451
289.062	449
289.293	454
289.524	468
289.755	459
289.986	483
290.217	449
290.448	460
290.679	441
290.91	458
291.141	491
291.371	504
291.602	497
291.833	473
292.064	495
292.295	489
292.526	515
292.757	525
292.987	485
293.218	501
293.449	535
293.68	576
293.91	603
294.141	561
294.372	533
294.603	580
294.833	603
295.064	557
295.295	500
295.525	484
295.756	455
295.987	435
296.217	437
296.448	458
296.679	472
296.909	455
297.14	466
297.37	475
297.601	495
297.831	530
298.062	522
298.292	490
298.523	476
298.753	465
298.984	469
299.214	478
299.445	497
299.675	515
299.905	511
300.136	472
300.366	471
300.597	457
300.827	463
301.057	486
301.288	528
301.518	517
301.748	519
301.979	559
302.209	584
302.439	595
302.669	618
302.9	563
303.13	516
303.36	525
303.59	512
303.82	498
304.051	508
304.281	517
304.511	537
304.741	601
304.971	623
305.201	635
305.431	577
305.661	481
305.891	471
306.121	485
306.352	491
306.582	519
306.812	577
307.042	554
307.272	579
307.502	615
307.731	615
307.961	647
308.191	587
308.421	534
308.651	496
308.881	507
309.111	515
309.341	512
309.571	511
309.8	484
310.03	509
310.26	484
310.49	493
310.72	487
310.949	526
311.179	525
311.409	512
311.639	506
311.868	513
312.098	520
312.328	528
312.557	507
312.787	520
313.017	533
313.246	528
313.476	536
313.706	536
313.935	551
314.165	557
314.394	583
314.624	606
314.853	616
315.083	631
315.312	633
315.542	583
315.771	560
316.001	565
316.23	579
316.46	585
316.689	561
316.919	542
317.148	526
317.377	561
317.607	618
317.836	651
318.065	647
318.295	633
318.524	598
318.753	579
318.983	580
319.212	581
319.441	542
319.67	555
319.9	577
320.129	610
320.358	607
320.587	618
320.816	647
321.046	615
321.275	601
321.504	588
321.733	632
321.962	604
322.191	571
322.42	557
322.649	588
322.878	573
323.108	583
323.337	586
323.566	588
323.795	567
324.024	573
324.253	567
324.482	557
324.71	547
324.939	522
325.168	540
325.397	561
325.626	573
325.855	591
326.084	572
326.313	555
326.542	570
326.77	579
326.999	582
327.228	563
327.457	549
327.686	535
327.914	581
328.143	563
328.372	547
328.6	555
328.829	544
329.058	565
329.287	549
329.515	603
329.744	580
329.972	624
330.201	650
330.43	617
330.658	587
330.887	600
331.115	625
331.344	620
331.572	601
331.801	590
332.03	596
332.258	617
332.486	619
332.715	594
332.943	620
333.172	591
333.4	627
333.629	651
333.857	672
334.085	744
334.314	814
334.542	845
334.771	759
334.999	696
335.227	668
335.455	635
335.684	654
335.912	657
336.14	671
336.369	653
336.597	603
336.825	593
337.053	644
337.281	700
337.51	684
337.738	717
337.966	664
338.194	611
338.422	617
338.65	604
338.878	616
339.106	576
339.334	575
339.562	572
339.79	585
340.018	614
340.246	655
340.474	627
340.702	602
340.93	641
341.158	624
341.386	622
341.614	605
341.842	602
342.07	611
342.298	613
342.526	609
342.754	573
342.981	597
343.209	607
343.437	594
343.665	600
343.893	608
344.12	620
344.348	643
344.576	616
344.804	615
345.031	576
345.259	624
345.487	567
345.714	584
345.942	567
346.17	602
346.397	575
346.625	585
346.853	561
347.08	543
347.308	565
347.535	555
347.763	586
347.99	568
348.218	567
348.445	575
348.673	569
348.9	589
349.128	600
349.355	616
349.583	598
349.81	552
350.037	546
350.265	523
350.492	534
350.72	564
350.947	581
351.174	608
351.402	555
351.629	553
351.856	542
352.083	539
352.311	564
352.538	571
352.765	556
352.992	583
353.22	579
353.447	547
353.674	567
353.901	567
354.128	559
354.355	558
354.583	580
354.81	603
355.037	590
355.264	565
355.491	579
355.718	582
355.945	572
356.172	549
356.399	542
356.626	575
356.853	607
357.08	630
357.307	719
357.534	648
357.761	591
357.988	537
358.215	546
358.441	579
358.668	543
358.895	586
359.122	599
359.349	643
359.576	613
359.802	575
360.029	545
360.256	562
360.483	584
360.709	569
360.936	606
361.163	629
361.39	689
361.616	726
361.843	705
362.07	635
362.296	603
362.523	577
362.749	581
362.976	619
363.203	586
363.429	565
363.656	574
363.882	605
364.109	669
364.335	694
364.562	639
364.788	604
365.015	614
365.241	572
365.468	593
365.694	615
365.92	603
366.147	584
366.373	581
366.599	568
366.826	569
367.052	558
367.278	569
367.505	583
367.731	596
367.957	624
368.184	649
368.41	687
368.636	683
368.862	661
369.089	651
369.315	645
369.541	603
369.767	591
369.993	599
370.219	590
370.445	644
370.672	663
370.898	686
371.124	655
371.35	632
371.576	661
371.802	642
372.028	610
372.254	596
372.48	589
372.706	604
372.932	619
373.158	613
373.384	619
373.61	656
373.835	636
374.061	637
374.287	638
374.513	647
374.739	654
374.965	634
375.191	641
375.416	669
375.642	669
375.868	733
376.094	725
376.319	670
376.545	641
376.771	691
376.997	706
377.222	689
377.448	672
377.674	675
377.899	693
378.125	720
378.35	687
378.576	645
378.802	614
379.027	609
379.253	637
379.478	638
379.704	630
379.929	621
380.155	633
380.38	665
380.606	671
380.831	676
381.057	719
381.282	698
381.507	695
381.733	750
381.958	759
382.184	680
382.409	683
382.634	707
382.86	667
383.085	680
383.31	715
383.535	767
383.761	810
383.986	736
384.211	738
384.436	719
384.662	776
384.887	786
385.112	744
385.337	744
385.562	725
385.787	748
386.013	769
386.238	768
386.463	773
386.688	839
386.913	877
387.138	808
387.363	786
387.588	782
387.813	760
388.038	785
388.263	811
388.488	780
388.713	748
388.938	717
389.163	714
389.387	756
389.612	758
389.837	771
390.062	755
390.287	735
390.512	760
390.736	710
390.961	741
391.186	712
391.411	737
391.636	761
391.86	755
392.085	746
392.31	756
392.534	750
392.759	784
392.984	749
393.208	786
393.433	807
393.658	831
393.882	817
394.107	774
394.331	752
394.556	799
394.78	805
395.005	800
395.229	863
395.454	881
395.678	885
395.903	819
396.127	831
396.352	820
396.576	863
396.801	864
397.025	851
397.249	821
397.474	850
397.698	830
397.922	871
398.147	899
398.371	943
398.595	913
398.82	871
399.044	863
399.268	950
399.492	971
399.717	991
399.941	994
400.165	971
400.389	983
400.613	1019
400.837	1129
401.062	1216
401.286	1017
401.51	969
401.734	998
401.958	943
402.182	895
402.406	899
402.63	867
402.854	888
403.078	905
403.302	917
403.526	912
403.75	936
403.974	957
404.198	957
404.422	1004
404.645	1033
404.869	1000
405.093	917
405.317	917
405.541	903
405.765	949
405.988	934
406.212	972
406.436	949
406.66	998
406.883	1054
407.107	1134
407.331	1219
407.555	1293
407.778	1123
408.002	1007
408.226	969
408.449	974
408.673	962
408.896	939
409.12	950
409.344	966
409.567	936
409.791	949
410.014	991
410.238	1030
410.461	1070
410.685	970
410.908	931
411.132	970
411.355	960
411.578	960
411.802	949
412.025	947
412.249	909
412.472	911
412.695	929
412.919	925
413.142	930
413.365	937
413.589	976
413.812	996
414.035	979
414.258	950
414.482	915
414.705	947
414.928	927
415.151	923
415.374	929
415.597	939
415.821	947
416.044	961
416.267	941
416.49	922
416.713	933
416.936	987
417.159	987
417.382	964
417.605	924
417.828	937
418.051	950
418.274	948
418.497	942
418.72	932
418.943	911
419.166	967
419.389	1004
419.611	952
419.834	935
420.057	945
420.28	955
420.503	927
420.726	972
420.948	960
421.171	969
421.394	940
421.617	967
421.839	990
422.062	983
422.285	948
422.507	932
422.73	926
422.953	885
423.175	899
423.398	927
423.621	909
423.843	951
424.066	983
424.288	1036
424.511	1070
424.733	1031
424.956	949
425.178	945
425.401	927
425.623	947
425.846	943
426.068	975
426.291	974
426.513	967
426.735	968
426.958	1070
427.18	1070
427.402	1022
427.625	1010
427.847	1013
428.069	952
428.292	899
428.514	907
428.736	920
428.958	935
429.181	933
429.403	1076
429.625	1263
429.847	1057
430.069	971
430.292	1087
430.514	1064
430.736	999
430.958	991
431.18	940
431.402	876
431.624	862
431.846	795
432.068	718
432.29	736
432.512	807
432.734	889
432.956	923
433.178	962
433.4	961
433.622	929
433.844	913
434.066	863
434.287	795
434.509	807
434.731	814
434.953	927
435.175	944
435.397	925
435.618	912
435.84	855
436.062	833
436.284	900
436.505	960
436.727	985
436.949	940
437.17	911
437.392	890
437.614	848
437.835	808
438.057	839
438.278	843
438.5	884
438.721	893
438.943	926
439.165	912
439.386	932
439.608	949
439.829	954
440.05	982
440.272	993
440.493	978
440.715	993
440.936	1032
441.158	1094
441.379	1051
441.6	1035
441.822	1032
442.043	1029
442.264	1007
442.486	939
442.707	980
442.928	968
443.149	986
443.371	1006
443.592	1033
443.813	1046
444.034	1030
444.255	1020
444.476	1039
444.698	1016
444.919	1055
445.14	1126
445.361	1125
445.582	1089
445.803	1039
446.024	1053
446.245	1066
446.466	1069
446.687	1069
446.908	1044
447.129	1007
447.35	1029
447.571	1004
447.792	979
448.013	989
448.234	993
448.455	996
448.675	1008
448.896	952
449.117	944
449.338	923
449.559	984
449.779	991
450	1036
450.221	1062
450.442	1061
450.662	944
450.883	890
451.104	888
451.324	886
451.545	895
451.766	873
451.986	851
452.207	838
452.428	812
452.648	783
452.869	804
453.089	798
453.31	791
453.53	780
453.751	773
453.971	702
454.192	720
454.412	775
454.633	787
454.853	797
455.073	785
455.294	776
455.514	775
455.734	742
455.955	777
456.175	759
456.395	743
456.616	748
456.836	739
457.056	729
457.276	727
457.497	703
457.717	700
457.937	714
458.157	741
458.377	707
458.598	699
458.818	674
459.038	724
459.258	728
459.478	711
459.698	710
459.918	731
460.138	803
460.358	843
460.578	840
460.798	867
461.018	904
461.238	866
461.458	859
461.678	857
461.898	825
462.118	821
462.338	849
462.558	857
462.777	843
462.997	872
463.217	877
463.437	875
463.657	864
463.876	830
464.096	839
464.316	862
464.536	867
464.755	904
464.975	891
465.195	892
465.414	915
465.634	878
465.854	922
466.073	971
466.293	957
466.512	887
466.732	889
466.951	881
467.171	915
467.391	904
467.61	889
467.829	924
468.049	991
468.268	1077
468.488	986
468.707	925
468.927	909
469.146	919
469.365	950
469.585	947
469.804	942
470.023	929
470.243	934
470.462	912
470.681	933
470.901	968
471.12	918
471.339	969
471.558	914
471.777	901
471.997	889
472.216	871
472.435	789
472.654	783
472.873	797
473.092	836
473.311	813
473.53	821
473.749	854
473.968	840
474.187	843
474.406	829
474.625	875
474.844	892
475.063	893
475.282	892
475.501	820
475.72	837
475.939	923
476.158	905
476.377	863
476.596	856
476.814	839
477.033	837
477.252	892
477.471	921
477.69	936
477.908	958
478.127	994
478.346	1023
478.564	1027
478.783	1017
479.002	1047
479.22	1029
479.439	1044
479.658	1039
479.876	991
480.095	921
480.313	889
480.532	896
480.751	873
480.969	857
481.188	812
481.406	763
481.624	775
481.843	799
482.061	836
482.28	899
482.498	888
482.717	906
482.935	899
483.153	981
483.372	1011
483.59	1031
483.808	998
484.027	949
484.245	1012
484.463	1236
484.681	1312
484.9	1032
485.118	999
485.336	939
485.554	907
485.772	892
485.99	898
486.209	893
486.427	896
486.645	971
486.863	999
487.081	1090
487.299	1039
487.517	1025
487.735	1140
487.953	1232
488.171	1230
488.389	1139
488.607	1093
488.825	1136
489.043	1081
489.261	1017
489.479	1046
489.696	1057
489.914	1035
490.132	1049
490.35	1072
490.568	1171
490.786	1208
491.003	1212
491.221	1261
491.439	1262
491.657	1309
491.874	1368
492.092	1485
492.31	1525
492.527	1481
492.745	1386
492.963	1319
493.18	1325
493.398	1393
493.615	1353
493.833	1293
494.05	1252
494.268	1240
494.485	1260
494.703	1278
494.92	1238
495.138	1239
495.355	1222
495.573	1239
495.79	1301
496.008	1286
496.225	1255
496.442	1233
496.66	1249
496.877	1208
497.094	1259
497.312	1240
497.529	1195
497.746	1193
497.963	1285
498.181	1335
498.398	1271
498.615	1236
498.832	1159
499.049	1185
499.267	1188
499.484	1275
499.701	1376
499.918	1397
500.135	1447
500.352	1580
500.569	1620
500.786	1705
501.003	1575
501.22	1457
501.437	1422
501.654	1429
501.871	1400
502.088	1223
502.305	1199
502.522	1146
502.739	1096
502.956	1058
503.172	1058
503.389	1048
503.606	995
503.823	1023
504.04	1017
504.256	1001
504.473	1012
504.69	1031
504.907	1011
505.123	981
505.34	1076
505.557	1383
505.773	1116
505.99	979
506.207	919
506.423	913
506.64	886
506.856	936
507.073	1052
507.289	1086
507.506	1011
507.722	928
507.939	884
508.155	857
508.372	860
508.588	825
508.805	791
509.021	795
509.238	770
509.454	747
509.67	765
509.887	755
510.103	739
510.319	760
510.536	761
510.752	777
510.968	769
511.184	811
511.401	756
511.617	712
511.833	705
512.049	713
512.265	720
512.481	730
512.698	757
512.914	792
513.13	786
513.346	712
513.562	703
513.778	715
513.994	753
514.21	772
514.426	775
514.642	853
514.858	769
515.074	715
515.29	738
515.506	774
515.721	766
515.937	775
516.153	821
516.369	786
516.585	739
516.801	734
517.016	736
517.232	764
517.448	793
517.664	792
517.879	784
518.095	828
518.311	750
518.527	787
518.742	767
518.958	758
519.173	777
519.389	786
519.605	797
519.82	786
520.036	788
520.251	774
520.467	783
520.682	813
520.898	823
521.113	759
521.329	710
521.544	760
521.76	745
521.975	717
522.19	718
522.406	720
522.621	914
522.836	857
523.052	748
523.267	774
523.482	761
523.698	740
523.913	752
524.128	750
524.343	815
524.559	853
524.774	809
524.989	783
525.204	757
525.419	751
525.634	753
525.849	732
526.064	755
526.28	722
526.495	671
526.71	667
526.925	652
527.14	649
527.355	629
527.57	652
527.785	668
527.999	654
528.214	670
528.429	703
528.644	747
528.859	795
529.074	850
529.289	888
529.503	888
529.718	809
529.933	747
530.148	693
530.363	650
530.577	657
530.792	640
531.007	648
531.221	636
531.436	650
531.651	641
531.865	666
532.08	659
532.295	644
532.509	631
532.724	631
532.938	663
533.153	728
533.367	759
533.582	764
533.796	741
534.011	723
534.225	685
534.44	652
534.654	652
534.868	665
535.083	704
535.297	676
535.511	674
535.726	713
535.94	677
536.154	652
536.369	645
536.583	627
536.797	629
537.011	606
537.225	627
537.44	605
537.654	670
537.868	671
538.082	600
538.296	618
538.51	615
538.724	681
538.938	703
539.153	708
539.367	707
539.581	710
539.795	671
540.009	677
540.222	649
540.436	664
540.65	773
540.864	799
541.078	844
541.292	851
541.506	890
541.72	961
541.934	1052
542.147	1072
542.361	1015
542.575	936
542.789	864
543.002	764
543.216	726
543.43	781
543.644	831
543.857	903
544.071	948
544.285	909
544.498	905
544.712	971
544.925	968
545.139	965
545.352	938
545.566	959
545.779	931
545.993	998
546.206	968
546.42	967
546.633	937
546.847	965
547.06	964
547.274	974
547.487	1009
547.7	1008
547.914	992
548.127	998
548.34	976
548.554	957
548.767	919
548.98	947
549.193	925
549.407	1000
549.62	944
549.833	932
550.046	933
550.259	920
550.473	899
550.686	893
550.899	888
551.112	858
551.325	859
551.538	854
551.751	864
551.964	715
552.177	717
552.39	811
552.603	853
552.816	881
553.029	899
553.242	932
553.455	903
553.667	905
553.88	916
554.093	870
554.306	875
554.519	855
554.732	807
554.944	830
555.157	847
555.37	817
555.583	811
555.795	781
556.008	769
556.221	719
556.433	723
556.646	757
556.859	708
557.071	739
557.284	746
557.496	792
557.709	760
557.921	769
558.134	729
558.346	750
558.559	725
558.771	733
558.984	727
559.196	703
559.409	693
559.621	675
559.833	674
560.046	680
560.258	686
560.47	708
560.683	693
560.895	697
561.107	678
561.32	680
561.532	703
561.744	671
561.956	677
562.168	665
562.381	664
562.593	641
562.805	647
563.017	645
563.229	631
563.441	665
563.653	634
563.865	631
564.077	639
564.289	612
564.501	620
564.713	663
564.925	637
565.137	683
565.349	641
565.561	633
565.773	622
565.985	655
566.197	630
566.408	674
566.62	687
566.832	691
567.044	669
567.255	668
567.467	662
567.679	653
567.891	645
568.102	621
568.314	574
568.526	551
568.737	546
568.949	484
569.161	463
569.372	445
569.584	448
569.795	458
570.007	474
570.218	429
570.43	437
570.641	469
570.853	470
571.064	505
571.276	486
571.487	500
571.698	489
571.91	466
572.121	453
572.333	457
572.544	434
572.755	412
572.966	402
573.178	406
573.389	418
573.6	399
573.811	459
574.023	415
574.234	389
574.445	398
574.656	383
574.867	410
575.078	421
575.289	402
575.501	383
575.712	387
575.923	397
576.134	397
576.345	426
576.556	420
576.767	402
576.978	389
577.188	413
577.399	379
577.61	372
577.821	384
578.032	391
578.243	375
578.454	363
578.665	369
578.875	348
579.086	345
579.297	336
579.508	339
579.718	366
579.929	349
580.14	348
580.35	337
580.561	373
580.772	387
580.982	379
581.193	373
581.403	372
581.614	342
581.825	345
582.035	333
582.246	331
582.456	359
582.667	361
582.877	347
583.087	350
583.298	347
583.508	326
583.719	327
583.929	329
584.139	328
584.35	319
584.56	344
584.77	345
584.981	337
585.191	337
585.401	330
585.611	349
585.821	342
586.032	313
586.242	333
586.452	324
586.662	320
586.872	313
587.082	332
587.292	326
587.502	347
587.713	337
587.923	329
588.133	310
588.343	323
588.553	319
588.762	309
588.972	312
589.182	329
589.392	315
589.602	325
589.812	313
590.022	329
590.232	312
590.441	313
590.651	342
590.861	327
591.071	316
591.281	301
591.49	320
591.7	310
591.91	304
592.119	314
592.329	326
592.539	352
592.748	329
592.958	317
593.167	345
593.377	332
593.587	344
593.796	319
594.006	305
594.215	349
594.424	344
594.634	368
594.843	346
595.053	341
595.262	334
595.472	332
595.681	332
595.89	332
596.1	312
596.309	325
596.518	324
596.727	352
596.937	333
597.146	329
597.355	322
597.564	300
597.774	297
597.983	296
598.192	286
598.401	286
598.61	295
598.819	305
599.028	314
599.237	311
599.446	299
599.655	301
599.864	287
600.073	273
600.282	314
600.491	309
600.7	279
600.909	311
601.118	335
601.327	335
601.536	360
601.745	345
601.953	347
602.162	349
602.371	376
602.58	351
602.789	368
602.997	364
603.206	361
603.415	356
603.623	362
603.832	343
604.041	347
604.249	325
604.458	325
604.666	314
604.875	329
605.084	327
605.292	334
605.501	330
605.709	363
605.918	359
606.126	386
606.334	369
606.543	352
606.751	351
606.96	370
607.168	374
607.376	372
607.585	359
607.793	371
608.001	363
608.21	359
608.418	359
608.626	376
608.834	380
609.043	352
609.251	379
609.459	369
609.667	381
609.875	381
610.083	386
610.291	380
610.499	378
610.707	387
610.916	374
611.124	355
611.332	395
611.54	369
611.748	373
611.955	379
612.163	367
612.371	373
612.579	375
612.787	352
612.995	377
613.203	364
613.411	369
613.618	385
613.826	353
614.034	377
614.242	367
614.449	381
614.657	367
614.865	366
615.072	363
615.28	349
615.488	350
615.695	375
615.903	356
616.111	371
616.318	389
616.526	357
616.733	355
616.941	379
617.148	349
617.356	349
617.563	352
617.771	341
617.978	335
618.185	340
618.393	339
618.6	359
618.807	366
619.015	348
619.222	336
619.429	329
619.637	321
619.844	301
620.051	331
620.258	344
620.466	331
620.673	345
620.88	334
621.087	313
621.294	301
621.501	296
621.708	289
621.915	327
622.122	325
622.329	338
622.536	344
622.743	347
622.95	334
623.157	324
623.364	342
623.571	355
623.778	329
623.985	349
624.192	325
624.399	328
624.606	305
624.812	319
625.019	304
625.226	299
625.433	288
625.639	291
625.846	279
626.053	246
626.259	245
626.466	243
626.673	263
626.879	238
627.086	249
627.293	278
627.499	296
627.706	301
627.912	311
628.119	298
628.325	311
628.532	311
628.738	299
628.945	294
629.151	287
629.357	308
629.564	311
629.77	291
629.976	285
630.183	264
630.389	270
630.595	277
630.802	280
631.008	291
631.214	273
631.42	280
631.627	291
631.833	264
632.039	265
632.245	276
632.451	275
632.657	274
632.863	279
633.069	259
633.275	266
633.481	270
633.688	257
633.893	251
634.099	282
634.305	269
634.511	246
634.717	236
634.923	235
635.129	247
635.335	236
635.541	243
635.747	240
635.952	266
636.158	266
636.364	258
636.57	266
636.775	265
636.981	281
637.187	261
637.392	280
637.598	258
637.804	258
638.009	272
638.215	263
638.421	265
638.626	262
638.832	277
639.037	255
639.243	236
639.448	250
639.654	267
639.859	253
640.065	280
640.27	254
640.475	271
640.681	242
640.886	256
641.091	248
641.297	265
641.502	256
641.707	259
641.913	267
642.118	262
642.323	246
642.528	231
642.733	248
642.939	259
643.144	247
643.349	247
643.554	257
643.759	246
643.964	251
644.169	240
644.374	242
644.579	236
644.784	261
644.989	244
645.194	238
645.399	230
645.604	238
645.809	248
646.014	250
646.219	255
646.423	254
646.628	265
646.833	245
647.038	238
647.243	257
647.447	239
647.652	251
647.857	249
648.062	237
648.266	247
648.471	271
648.676	247
648.88	249
649.085	252
649.289	266
649.494	252
649.698	237
649.903	232
650.107	238
650.312	246
650.516	241
650.721	236
650.925	228
651.13	231
651.334	220
651.539	234
651.743	250
651.947	225
652.152	235
652.356	226
652.56	223
652.764	221
652.969	224
653.173	226
653.377	214
653.581	213
653.785	222
653.99	221
654.194	219
654.398	223
654.602	212
654.806	218
655.01	212
655.214	204
655.418	206
655.622	194
655.826	211
656.03	215
656.234	219
656.438	230
656.642	220
656.846	224
657.049	218
657.253	201
657.457	194
657.661	199
657.865	166
658.068	155
658.272	155
658.476	160
658.68	154
658.883	153
659.087	136
659.291	146
659.494	142
659.698	143
659.901	138
660.105	129
660.309	133
660.512	127
660.716	132
660.919	133
661.123	125
661.326	119
661.53	103
661.733	108
661.936	100
662.14	103
662.343	115
662.546	105
662.75	91
662.953	99
663.156	93
663.36	102
663.563	98
663.766	91
663.969	96
664.173	88
664.376	83
664.579	84
664.782	74
664.985	105
665.188	93
665.391	97
665.594	81
665.797	97
666	84
666.203	85
666.406	81
666.609	87
666.812	88
667.015	77
667.218	92
667.421	89
667.624	82
667.827	98
668.03	89
668.232	87
668.435	79
668.638	92
668.841	83
669.043	82
669.246	92
669.449	87
669.651	81
669.854	85
670.057	104
670.259	83
670.462	80
670.665	90
670.867	82
671.07	79
671.272	88
671.475	98
671.677	96
671.88	96
672.082	83
672.284	97
672.487	103
672.689	85
672.892	76
