Data from 1980.PennyLincolnUp.Lamp.En5.5.200Scan.071819.P1_HRD10591_16-36-48-957.txt Node
Date: Thu Jul 18 16:36:48 EDT 2019
User: cochatt
Spectrometer: HR+D1059
Trigger mode: 1
Integration Time (sec): 1.000000E-1
Scans to average: 1
Electric dark correction enabled: true
Nonlinearity correction enabled: false
Boxcar width: 0
XAxis mode: Wavelengths
Number of Pixels in Spectrum: 2048
>>>>>Begin Spectral Data<<<<<
223.165	-8
223.4	-8
223.635	-8
223.869	-15
224.104	-18
224.338	-8
224.573	-21
224.808	-6
225.042	-5
225.277	-12
225.511	-1
225.746	-5
225.98	-8
226.215	11
226.449	23
226.683	33
226.918	14
227.152	26
227.387	28
227.621	46
227.856	40
228.09	43
228.324	51
228.559	53
228.793	76
229.027	103
229.262	101
229.496	96
229.73	132
229.964	152
230.199	130
230.433	106
230.667	109
230.901	115
231.136	103
231.37	123
231.604	118
231.838	101
232.072	107
232.306	109
232.541	120
232.775	105
233.009	106
233.243	124
233.477	116
233.711	111
233.945	122
234.179	108
234.413	102
234.647	121
234.881	135
235.115	109
235.349	118
235.583	120
235.817	137
236.051	124
236.285	118
236.519	100
236.753	123
236.987	143
237.221	184
237.455	237
237.689	190
237.922	141
238.156	133
238.39	119
238.624	129
238.858	117
239.091	112
239.325	134
239.559	120
239.793	124
240.027	122
240.26	141
240.494	158
240.728	140
240.961	149
241.195	138
241.429	148
241.662	140
241.896	118
242.13	124
242.363	137
242.597	123
242.83	136
243.064	129
243.298	127
243.531	139
243.765	134
243.998	130
244.232	136
244.465	139
244.699	142
244.932	134
245.166	152
245.399	144
245.633	148
245.866	139
246.099	144
246.333	148
246.566	138
246.8	151
247.033	156
247.266	148
247.5	157
247.733	159
247.966	157
248.2	162
248.433	165
248.666	171
248.899	189
249.133	205
249.366	211
249.599	199
249.832	173
250.066	181
250.299	186
250.532	203
250.765	208
250.998	212
251.231	233
251.465	206
251.698	215
251.931	192
252.164	194
252.397	205
252.63	198
252.863	209
253.096	208
253.329	239
253.562	221
253.795	236
254.028	204
254.261	227
254.494	225
254.727	255
254.96	271
255.193	256
255.426	248
255.659	239
255.892	215
256.124	223
256.357	235
256.59	219
256.823	224
257.056	222
257.289	204
257.521	216
257.754	197
257.987	211
258.22	199
258.452	210
258.685	203
258.918	194
259.151	205
259.383	214
259.616	211
259.849	222
260.081	247
260.314	251
260.547	243
260.779	240
261.012	238
261.244	250
261.477	234
261.71	218
261.942	222
262.175	222
262.407	217
262.64	205
262.872	210
263.105	195
263.337	198
263.57	197
263.802	211
264.035	204
264.267	213
264.499	200
264.732	192
264.964	202
265.197	199
265.429	201
265.661	215
265.894	200
266.126	189
266.358	217
266.591	212
266.823	220
267.055	196
267.287	215
267.52	203
267.752	218
267.984	223
268.216	223
268.448	227
268.681	228
268.913	232
269.145	243
269.377	258
269.609	265
269.841	263
270.073	267
270.306	287
270.538	288
270.77	298
271.002	296
271.234	287
271.466	307
271.698	287
271.93	297
272.162	309
272.394	295
272.626	294
272.858	290
273.09	294
273.322	275
273.553	257
273.785	263
274.017	240
274.249	265
274.481	282
274.713	257
274.945	263
275.176	263
275.408	225
275.64	235
275.872	233
276.104	250
276.335	242
276.567	263
276.799	290
277.031	301
277.262	306
277.494	312
277.726	294
277.957	265
278.189	256
278.421	247
278.652	260
278.884	259
279.115	252
279.347	249
279.579	248
279.81	262
280.042	261
280.273	233
280.505	261
280.736	241
280.968	234
281.199	257
281.431	255
281.662	247
281.894	258
282.125	261
282.356	260
282.588	283
282.819	293
283.051	270
283.282	231
283.513	258
283.745	260
283.976	254
284.207	254
284.439	258
284.67	245
284.901	260
285.132	261
285.364	250
285.595	252
285.826	243
286.057	270
286.288	236
286.52	254
286.751	256
286.982	258
287.213	260
287.444	270
287.675	262
287.906	254
288.138	269
288.369	285
288.6	271
288.831	280
289.062	265
289.293	254
289.524	256
289.755	248
289.986	258
290.217	251
290.448	254
290.679	264
290.91	272
291.141	244
291.371	265
291.602	280
291.833	240
292.064	275
292.295	253
292.526	256
292.757	266
292.987	263
293.218	262
293.449	259
293.68	259
293.91	267
294.141	288
294.372	255
294.603	256
294.833	271
295.064	267
295.295	261
295.525	255
295.756	270
295.987	271
296.217	298
296.448	293
296.679	277
296.909	261
297.14	249
297.37	270
297.601	267
297.831	278
298.062	266
298.292	266
298.523	279
298.753	278
298.984	270
299.214	280
299.445	268
299.675	308
299.905	287
300.136	277
300.366	261
300.597	283
300.827	290
301.057	277
301.288	288
301.518	300
301.748	279
301.979	284
302.209	314
302.439	287
302.669	299
302.9	296
303.13	302
303.36	312
303.59	302
303.82	298
304.051	319
304.281	282
304.511	308
304.741	283
304.971	285
305.201	303
305.431	294
305.661	300
305.891	284
306.121	284
306.352	306
306.582	318
306.812	301
307.042	276
307.272	292
307.502	295
307.731	294
307.961	298
308.191	307
308.421	265
308.651	298
308.881	308
309.111	295
309.341	309
309.571	298
309.8	327
310.03	316
310.26	339
310.49	335
310.72	347
310.949	362
311.179	378
311.409	349
311.639	332
311.868	330
312.098	349
312.328	339
312.557	373
312.787	373
313.017	377
313.246	359
313.476	344
313.706	326
313.935	343
314.165	369
314.394	360
314.624	382
314.853	328
315.083	361
315.312	341
315.542	337
315.771	334
316.001	314
316.23	333
316.46	344
316.689	334
316.919	334
317.148	353
317.377	357
317.607	351
317.836	349
318.065	336
318.295	351
318.524	346
318.753	330
318.983	344
319.212	338
319.441	360
319.67	355
319.9	350
320.129	333
320.358	347
320.587	335
320.816	356
321.046	358
321.275	363
321.504	351
321.733	359
321.962	357
322.191	374
322.42	395
322.649	400
322.878	410
323.108	428
323.337	456
323.566	468
323.795	520
324.024	595
324.253	696
324.482	952
324.71	1480
324.939	2156
325.168	1856
325.397	1005
325.626	662
325.855	534
326.084	511
326.313	493
326.542	478
326.77	524
326.999	636
327.228	818
327.457	1311
327.686	1612
327.914	1084
328.143	724
328.372	630
328.6	569
328.829	539
329.058	559
329.287	568
329.515	544
329.744	481
329.972	482
330.201	496
330.43	548
330.658	549
330.887	586
331.115	593
331.344	497
331.572	450
331.801	460
332.03	431
332.258	416
332.486	422
332.715	386
332.943	427
333.172	412
333.4	415
333.629	408
333.857	422
334.085	440
334.314	434
334.542	456
334.771	499
334.999	444
335.227	417
335.455	406
335.684	397
335.912	392
336.14	374
336.369	396
336.597	398
336.825	415
337.053	391
337.281	392
337.51	382
337.738	377
337.966	378
338.194	378
338.422	415
338.65	392
338.878	381
339.106	379
339.334	382
339.562	378
339.79	361
340.018	370
340.246	379
340.474	396
340.702	392
340.93	379
341.158	379
341.386	375
341.614	373
341.842	378
342.07	395
342.298	383
342.526	363
342.754	356
342.981	377
343.209	362
343.437	367
343.665	395
343.893	375
344.12	349
344.348	371
344.576	372
344.804	383
345.031	370
345.259	394
345.487	398
345.714	405
345.942	381
346.17	382
346.397	360
346.625	382
346.853	378
347.08	394
347.308	379
347.535	392
347.763	401
347.99	377
348.218	392
348.445	363
348.673	387
348.9	375
349.128	349
349.355	377
349.583	354
349.81	361
350.037	367
350.265	361
350.492	363
350.72	349
350.947	357
351.174	380
351.402	386
351.629	376
351.856	382
352.083	380
352.311	398
352.538	396
352.765	410
352.992	369
353.22	391
353.447	379
353.674	379
353.901	375
354.128	341
354.355	334
354.583	351
354.81	353
355.037	339
355.264	338
355.491	342
355.718	333
355.945	327
356.172	338
356.399	338
356.626	319
356.853	336
357.08	318
357.307	347
357.534	345
357.761	322
357.988	338
358.215	342
358.441	331
358.668	345
358.895	340
359.122	355
359.349	351
359.576	372
359.802	386
360.029	444
360.256	429
360.483	441
360.709	391
360.936	378
361.163	375
361.39	370
361.616	390
361.843	378
362.07	379
362.296	375
362.523	365
362.749	377
362.976	357
363.203	357
363.429	356
363.656	354
363.882	357
364.109	352
364.335	343
364.562	344
364.788	341
365.015	351
365.241	343
365.468	377
365.694	366
365.92	375
366.147	362
366.373	340
366.599	335
366.826	356
367.052	357
367.278	355
367.505	339
367.731	364
367.957	330
368.184	346
368.41	357
368.636	361
368.862	351
369.089	368
369.315	357
369.541	356
369.767	362
369.993	345
370.219	349
370.445	357
370.672	336
370.898	365
371.124	339
371.35	348
371.576	361
371.802	354
372.028	331
372.254	349
372.48	348
372.706	326
372.932	346
373.158	339
373.384	341
373.61	356
373.835	338
374.061	348
374.287	366
374.513	351
374.739	348
374.965	351
375.191	365
375.416	343
375.642	357
375.868	358
376.094	341
376.319	353
376.545	363
376.771	334
376.997	356
377.222	341
377.448	333
377.674	349
377.899	341
378.125	318
378.35	325
378.576	352
378.802	340
379.027	348
379.253	331
379.478	339
379.704	356
379.929	347
380.155	324
380.38	357
380.606	333
380.831	347
381.057	354
381.282	342
381.507	345
381.733	348
381.958	349
382.184	335
382.409	352
382.634	360
382.86	367
383.085	347
383.31	352
383.535	363
383.761	348
383.986	363
384.211	363
384.436	364
384.662	360
384.887	365
385.112	366
385.337	363
385.562	363
385.787	360
386.013	385
386.238	388
386.463	388
386.688	380
386.913	366
387.138	378
387.363	374
387.588	374
387.813	368
388.038	362
388.263	374
388.488	372
388.713	364
388.938	359
389.163	357
389.387	362
389.612	372
389.837	361
390.062	333
390.287	372
390.512	374
390.736	388
390.961	363
391.186	363
391.411	359
391.636	386
391.86	398
392.085	377
392.31	376
392.534	388
392.759	379
392.984	367
393.208	356
393.433	373
393.658	372
393.882	366
394.107	373
394.331	362
394.556	356
394.78	375
395.005	368
395.229	348
395.454	357
395.678	375
395.903	378
396.127	400
396.352	402
396.576	395
396.801	388
397.025	381
397.249	385
397.474	393
397.698	379
397.922	393
398.147	408
398.371	419
398.595	409
398.82	399
399.044	422
399.268	384
399.492	442
399.717	460
399.941	458
400.165	494
400.389	516
400.613	471
400.837	447
401.062	438
401.286	420
401.51	406
401.734	422
401.958	422
402.182	424
402.406	424
402.63	435
402.854	430
403.078	422
403.302	413
403.526	434
403.75	442
403.974	443
404.198	425
404.422	424
404.645	434
404.869	453
405.093	488
405.317	495
405.541	548
405.765	489
405.988	447
406.212	471
406.436	490
406.66	520
406.883	487
407.107	494
407.331	527
407.555	597
407.778	572
408.002	538
408.226	491
408.449	484
408.673	492
408.896	508
409.12	540
409.344	509
409.567	474
409.791	450
410.014	432
410.238	450
410.461	457
410.685	447
410.908	464
411.132	479
411.355	512
411.578	499
411.802	452
412.025	436
412.249	431
412.472	443
412.695	491
412.919	497
413.142	454
413.365	436
413.589	412
413.812	414
414.035	402
414.258	385
414.482	410
414.705	418
414.928	395
415.151	411
415.374	421
415.597	397
415.821	419
416.044	410
416.267	407
416.49	406
416.713	416
416.936	405
417.159	402
417.382	414
417.605	418
417.828	416
418.051	451
418.274	430
418.497	415
418.72	412
418.943	396
419.166	443
419.389	457
419.611	436
419.834	444
420.057	435
420.28	454
420.503	462
420.726	440
420.948	453
421.171	526
421.394	522
421.617	469
421.839	451
422.062	442
422.285	445
422.507	500
422.73	570
422.953	555
423.175	486
423.398	452
423.621	443
423.843	482
424.066	491
424.288	481
424.511	493
424.733	550
424.956	615
425.178	604
425.401	602
425.623	624
425.846	556
426.068	506
426.291	492
426.513	483
426.735	487
426.958	523
427.18	622
427.402	717
427.625	813
427.847	732
428.069	622
428.292	534
428.514	517
428.736	477
428.958	483
429.181	456
429.403	436
429.625	448
429.847	482
430.069	549
430.292	552
430.514	474
430.736	451
430.958	442
431.18	428
431.402	435
431.624	430
431.846	412
432.068	415
432.29	440
432.512	424
432.734	412
432.956	420
433.178	412
433.4	437
433.622	438
433.844	410
434.066	416
434.287	423
434.509	443
434.731	444
434.953	443
435.175	460
435.397	487
435.618	482
435.84	520
436.062	610
436.284	667
436.505	565
436.727	521
436.949	470
437.17	465
437.392	467
437.614	492
437.835	504
438.057	611
438.278	679
438.5	669
438.721	742
438.943	679
439.165	586
439.386	524
439.608	492
439.829	508
440.05	533
440.272	560
440.493	572
440.715	514
440.936	488
441.158	467
441.379	463
441.6	469
441.822	516
442.043	529
442.264	615
442.486	644
442.707	546
442.928	500
443.149	498
443.371	568
443.592	582
443.813	642
444.034	701
444.255	586
444.476	514
444.698	511
444.919	469
445.14	538
445.361	533
445.582	501
445.803	598
446.024	679
446.245	684
446.466	618
446.687	534
446.908	483
447.129	478
447.35	440
447.571	448
447.792	473
448.013	467
448.234	485
448.455	524
448.675	622
448.896	735
449.117	626
449.338	598
449.559	674
449.779	748
450	628
450.221	539
450.442	493
450.662	478
450.883	453
451.104	471
451.324	459
451.545	430
451.766	413
451.986	425
452.207	419
452.428	385
452.648	411
452.869	415
453.089	402
453.31	429
453.53	422
453.751	401
453.971	416
454.192	431
454.412	418
454.633	408
454.853	407
455.073	390
455.294	441
455.514	496
455.734	493
455.955	418
456.175	404
456.395	388
456.616	378
456.836	382
457.056	379
457.276	371
457.497	380
457.717	383
457.937	417
458.157	392
458.377	414
458.598	414
458.818	484
459.038	584
459.258	567
459.478	479
459.698	436
459.918	418
460.138	420
460.358	420
460.578	412
460.798	398
461.018	431
461.238	404
461.458	427
461.678	412
461.898	419
462.118	415
462.338	424
462.558	423
462.777	439
462.997	432
463.217	431
463.437	432
463.657	410
463.876	424
464.096	424
464.316	440
464.536	433
464.755	457
464.975	455
465.195	488
465.414	584
465.634	523
465.854	467
466.073	448
466.293	429
466.512	407
466.732	414
466.951	404
467.171	413
467.391	409
467.61	428
467.829	420
468.049	426
468.268	410
468.488	407
468.707	394
468.927	408
469.146	408
469.365	398
469.585	395
469.804	416
470.023	413
470.243	428
470.462	424
470.681	441
470.901	446
471.12	406
471.339	410
471.558	417
471.777	419
471.997	420
472.216	421
472.435	448
472.654	448
472.873	411
473.092	416
473.311	405
473.53	413
473.749	435
473.968	463
474.187	552
474.406	586
474.625	479
474.844	424
475.063	423
475.282	435
475.501	442
475.72	446
475.939	442
476.158	434
476.377	447
476.596	421
476.814	427
477.033	446
477.252	439
477.471	446
477.69	453
477.908	447
478.127	448
478.346	443
478.564	442
478.783	452
479.002	468
479.22	469
479.439	475
479.658	494
479.876	501
480.095	520
480.313	523
480.532	535
480.751	501
480.969	520
481.188	562
481.406	609
481.624	537
481.843	526
482.061	501
482.28	506
482.498	491
482.717	485
482.935	489
483.153	463
483.372	478
483.59	486
483.808	475
484.027	498
484.245	489
484.463	500
484.681	506
484.9	490
485.118	510
485.336	487
485.554	502
485.772	515
485.99	510
486.209	515
486.427	541
486.645	510
486.863	572
487.081	528
487.299	540
487.517	547
487.735	538
487.953	513
488.171	532
488.389	529
488.607	533
488.825	527
489.043	545
489.261	548
489.479	553
489.696	543
489.914	547
490.132	548
490.35	560
490.568	551
490.786	583
491.003	585
491.221	586
491.439	608
491.657	600
491.874	608
492.092	618
492.31	630
492.527	604
492.745	630
492.963	623
493.18	623
493.398	619
493.615	635
493.833	644
494.05	640
494.268	638
494.485	651
494.703	621
494.92	635
495.138	638
495.355	621
495.573	638
495.79	657
496.008	640
496.225	637
496.442	623
496.66	668
496.877	623
497.094	654
497.312	646
497.529	635
497.746	653
497.963	679
498.181	694
498.398	682
498.615	693
498.832	710
499.049	684
499.267	686
499.484	727
499.701	708
499.918	734
500.135	754
500.352	768
500.569	771
500.786	772
501.003	802
501.22	783
501.437	798
501.654	783
501.871	790
502.088	741
502.305	708
502.522	710
502.739	692
502.956	659
503.172	677
503.389	646
503.606	647
503.823	663
504.04	657
504.256	674
504.473	652
504.69	632
504.907	649
505.123	635
505.34	615
505.557	605
505.773	640
505.99	597
506.207	628
506.423	618
506.64	608
506.856	628
507.073	620
507.289	604
507.506	602
507.722	638
507.939	642
508.155	621
508.372	610
508.588	611
508.805	582
509.021	596
509.238	600
509.454	617
509.67	619
509.887	581
510.103	598
510.319	621
510.536	731
510.752	1213
510.968	957
511.184	627
511.401	567
511.617	559
511.833	568
512.049	570
512.265	573
512.481	568
512.698	581
512.914	566
513.13	522
513.346	568
513.562	558
513.778	578
513.994	586
514.21	587
514.426	598
514.642	631
514.858	655
515.074	730
515.29	888
515.506	1341
515.721	1096
515.937	715
516.153	664
516.369	603
516.585	597
516.801	584
517.016	570
517.232	585
517.448	586
517.664	570
517.879	589
518.095	567
518.311	572
518.527	554
518.742	579
518.958	549
519.173	575
519.389	556
519.605	570
519.82	578
520.036	584
520.251	627
520.467	622
520.682	638
520.898	655
521.113	661
521.329	717
521.544	818
521.76	1055
521.975	1802
522.19	1774
522.406	930
522.621	678
522.836	629
523.052	569
523.267	564
523.482	541
523.698	532
523.913	528
524.128	536
524.343	508
524.559	505
524.774	475
524.989	488
525.204	522
525.419	503
525.634	462
525.849	482
526.064	485
526.28	463
526.495	448
526.71	442
526.925	462
527.14	463
527.355	453
527.57	462
527.785	461
527.999	443
528.214	437
528.429	468
528.644	456
528.859	459
529.074	460
529.289	508
529.503	560
529.718	557
529.933	491
530.148	485
530.363	458
530.577	455
530.792	436
531.007	444
531.221	450
531.436	450
531.651	434
531.865	438
532.08	403
532.295	416
532.509	412
532.724	418
532.938	434
533.153	428
533.367	422
533.582	427
533.796	426
534.011	428
534.225	450
534.44	422
534.654	401
534.868	412
535.083	419
535.297	423
535.511	439
535.726	429
535.94	459
536.154	426
536.369	428
536.583	417
536.797	409
537.011	415
537.225	409
537.44	413
537.654	408
537.868	404
538.082	432
538.296	427
538.51	411
538.724	426
538.938	411
539.153	403
539.367	435
539.581	430
539.795	412
540.009	403
540.222	403
540.436	427
540.65	411
540.864	409
541.078	430
541.292	426
541.506	419
541.72	419
541.934	422
542.147	412
542.361	413
542.575	426
542.789	402
543.002	428
543.216	396
543.43	423
543.644	418
543.857	416
544.071	423
544.285	401
544.498	422
544.712	418
544.925	400
545.139	399
545.352	401
545.566	376
545.779	416
545.993	396
546.206	376
546.42	387
546.633	395
546.847	403
547.06	385
547.274	391
547.487	392
547.7	389
547.914	379
548.127	390
548.34	375
548.554	373
548.767	398
548.98	406
549.193	380
549.407	379
549.62	392
549.833	375
550.046	381
550.259	381
550.473	395
550.686	393
550.899	391
551.112	381
551.325	361
551.538	377
551.751	372
551.964	362
552.177	379
552.39	382
552.603	388
552.816	388
553.029	380
553.242	391
553.455	382
553.667	378
553.88	400
554.093	397
554.306	386
554.519	395
554.732	376
554.944	395
555.157	386
555.37	380
555.583	379
555.795	375
556.008	361
556.221	368
556.433	369
556.646	363
556.859	357
557.071	351
557.284	373
557.496	336
557.709	353
557.921	348
558.134	360
558.346	344
558.559	360
558.771	365
558.984	341
559.196	345
559.409	362
559.621	343
559.833	357
560.046	346
560.258	344
560.47	363
560.683	351
560.895	323
561.107	340
561.32	354
561.532	356
561.744	359
561.956	341
562.168	346
562.381	330
562.593	360
562.805	327
563.017	346
563.229	339
563.441	335
563.653	345
563.865	335
564.077	355
564.289	351
564.501	359
564.713	375
564.925	340
565.137	375
565.349	376
565.561	358
565.773	372
565.985	380
566.197	387
566.408	380
566.62	386
566.832	382
567.044	394
567.255	381
567.467	401
567.679	406
567.891	400
568.102	406
568.314	396
568.526	392
568.737	380
568.949	355
569.161	345
569.372	361
569.584	364
569.795	352
570.007	368
570.218	397
570.43	392
570.641	345
570.853	318
571.064	359
571.276	335
571.487	330
571.698	333
571.91	325
572.121	326
572.333	318
572.544	328
572.755	316
572.966	324
573.178	323
573.389	330
573.6	304
573.811	309
574.023	325
574.234	311
574.445	311
574.656	309
574.867	298
575.078	287
575.289	324
575.501	300
575.712	278
575.923	285
576.134	306
576.345	290
576.556	298
576.767	280
576.978	286
577.188	301
577.399	293
577.61	316
577.821	286
578.032	303
578.243	334
578.454	564
578.665	424
578.875	303
579.086	284
579.297	299
579.508	290
579.718	286
579.929	276
580.14	280
580.35	286
580.561	278
580.772	278
580.982	282
581.193	270
581.403	280
581.614	287
581.825	285
582.035	275
582.246	281
582.456	256
582.667	283
582.877	277
583.087	272
583.298	293
583.508	265
583.719	267
583.929	281
584.139	291
584.35	277
584.56	286
584.77	279
584.981	277
585.191	278
585.401	255
585.611	283
585.821	284
586.032	272
586.242	281
586.452	278
586.662	270
586.872	277
587.082	283
587.292	269
587.502	291
587.713	264
587.923	252
588.133	268
588.343	259
588.553	267
588.762	263
588.972	257
589.182	263
589.392	265
589.602	283
589.812	260
590.022	281
590.232	276
590.441	280
590.651	258
590.861	262
591.071	269
591.281	269
591.49	258
591.7	270
591.91	277
592.119	255
592.329	281
592.539	260
592.748	270
592.958	271
593.167	255
593.377	267
593.587	298
593.796	268
594.006	292
594.215	262
594.424	264
594.634	292
594.843	278
595.053	264
595.262	265
595.472	259
595.681	250
595.89	271
596.1	258
596.309	255
596.518	232
596.727	261
596.937	234
597.146	236
597.355	259
597.564	243
597.774	239
597.983	247
598.192	244
598.401	229
598.61	235
598.819	214
599.028	244
599.237	242
599.446	228
599.655	242
599.864	244
600.073	247
600.282	229
600.491	226
600.7	232
600.909	223
601.118	239
601.327	246
601.536	212
601.745	229
601.953	242
602.162	233
602.371	216
602.58	225
602.789	239
602.997	238
603.206	226
603.415	242
603.623	233
603.832	220
604.041	228
604.249	220
604.458	208
604.666	213
604.875	238
605.084	219
605.292	218
605.501	239
605.709	232
605.918	226
606.126	234
606.334	223
606.543	228
606.751	230
606.96	220
607.168	232
607.376	223
607.585	242
607.793	244
608.001	219
608.21	216
608.418	232
608.626	214
608.834	244
609.043	225
609.251	222
609.459	216
609.667	220
609.875	223
610.083	224
610.291	231
610.499	200
610.707	217
610.916	214
611.124	220
611.332	222
611.54	215
611.748	219
611.955	226
612.163	208
612.371	221
612.579	208
612.787	238
612.995	224
613.203	227
613.411	218
613.618	242
613.826	230
614.034	231
614.242	214
614.449	217
614.657	218
614.865	196
615.072	197
615.28	221
615.488	217
615.695	237
615.903	224
616.111	206
616.318	212
616.526	183
616.733	203
616.941	209
617.148	222
617.356	236
617.563	213
617.771	210
617.978	211
618.185	202
618.393	214
618.6	216
618.807	206
619.015	205
619.222	207
619.429	207
619.637	200
619.844	207
620.051	213
620.258	203
620.466	203
620.673	210
620.88	194
621.087	208
621.294	212
621.501	199
621.708	207
621.915	212
622.122	204
622.329	199
622.536	206
622.743	209
622.95	206
623.157	194
623.364	213
623.571	197
623.778	205
623.985	208
624.192	208
624.399	215
624.606	214
624.812	191
625.019	203
625.226	184
625.433	208
625.639	195
625.846	201
626.053	193
626.259	204
626.466	194
626.673	200
626.879	185
627.086	198
627.293	175
627.499	199
627.706	205
627.912	199
628.119	191
628.325	181
628.532	179
628.738	202
628.945	191
629.151	188
629.357	193
629.564	195
629.77	176
629.976	182
630.183	178
630.389	173
630.595	186
630.802	175
631.008	196
631.214	190
631.42	176
631.627	190
631.833	180
632.039	188
632.245	179
632.451	187
632.657	176
632.863	174
633.069	164
633.275	174
633.481	169
633.688	176
633.893	180
634.099	182
634.305	162
634.511	176
634.717	181
634.923	162
635.129	165
635.335	164
635.541	161
635.747	191
635.952	180
636.158	159
636.364	160
636.57	184
636.775	160
636.981	163
637.187	178
637.392	167
637.598	167
637.804	165
638.009	164
638.215	162
638.421	165
638.626	167
638.832	171
639.037	155
639.243	158
639.448	183
639.654	167
639.859	165
640.065	158
640.27	172
640.475	178
640.681	167
640.886	157
641.091	163
641.297	154
641.502	152
641.707	148
641.913	154
642.118	166
642.323	175
642.528	152
642.733	180
642.939	161
643.144	154
643.349	165
643.554	153
643.759	155
643.964	146
644.169	163
644.374	163
644.579	163
644.784	158
644.989	156
645.194	145
645.399	154
645.604	149
645.809	163
646.014	167
646.219	162
646.423	155
646.628	152
646.833	159
647.038	148
647.243	136
647.447	166
647.652	156
647.857	161
648.062	158
648.266	154
648.471	149
648.676	171
648.88	156
649.085	162
649.289	159
649.494	155
649.698	183
649.903	175
650.107	171
650.312	165
650.516	146
650.721	164
650.925	139
651.13	148
651.334	148
651.539	150
651.743	139
651.947	126
652.152	151
652.356	140
652.56	130
652.764	147
652.969	144
653.173	138
653.377	125
653.581	135
653.785	128
653.99	134
654.194	121
654.398	138
654.602	119
654.806	127
655.01	131
655.214	150
655.418	122
655.622	131
655.826	116
656.03	126
656.234	127
656.438	128
656.642	122
656.846	126
657.049	124
657.253	118
657.457	124
657.661	111
657.865	111
658.068	124
658.272	111
658.476	118
658.68	116
658.883	100
659.087	104
659.291	102
659.494	87
659.698	101
659.901	92
660.105	79
660.309	91
660.512	97
660.716	93
660.919	75
661.123	99
661.326	99
661.53	87
661.733	100
661.936	90
662.14	93
662.343	84
662.546	89
662.75	81
662.953	92
663.156	83
663.36	88
663.563	71
663.766	102
663.969	91
664.173	82
664.376	82
664.579	99
664.782	80
664.985	93
665.188	72
665.391	86
665.594	79
665.797	80
666	84
666.203	94
666.406	75
666.609	90
666.812	85
667.015	94
667.218	88
667.421	84
667.624	90
667.827	75
668.03	81
668.232	80
668.435	85
668.638	102
668.841	90
669.043	86
669.246	89
669.449	82
669.651	83
669.854	75
670.057	93
670.259	88
670.462	81
670.665	78
670.867	83
671.07	84
671.272	68
671.475	83
671.677	82
671.88	88
672.082	84
672.284	73
672.487	75
672.689	89
672.892	86
