Data from 1981.PennyLincolnUp.Lamp.En5.5.200Scan.071819.P1_HRD10591_16-40-23-960.txt Node
Date: Thu Jul 18 16:40:23 EDT 2019
User: cochatt
Spectrometer: HR+D1059
Trigger mode: 1
Integration Time (sec): 1.000000E-1
Scans to average: 1
Electric dark correction enabled: true
Nonlinearity correction enabled: false
Boxcar width: 0
XAxis mode: Wavelengths
Number of Pixels in Spectrum: 2048
>>>>>Begin Spectral Data<<<<<
223.165	-6
223.4	-6
223.635	-6
223.869	-19
224.104	-17
224.338	-17
224.573	-2
224.808	-9
225.042	0
225.277	-7
225.511	9
225.746	-2
225.98	-18
226.215	17
226.449	-2
226.683	14
226.918	30
227.152	29
227.387	36
227.621	41
227.856	51
228.09	30
228.324	44
228.559	49
228.793	61
229.027	113
229.262	115
229.496	119
229.73	138
229.964	148
230.199	127
230.433	121
230.667	108
230.901	111
231.136	112
231.37	109
231.604	125
231.838	107
232.072	111
232.306	117
232.541	114
232.775	119
233.009	118
233.243	109
233.477	102
233.711	121
233.945	121
234.179	118
234.413	110
234.647	109
234.881	130
235.115	110
235.349	124
235.583	133
235.817	105
236.051	112
236.285	126
236.519	125
236.753	141
236.987	148
237.221	178
237.455	234
237.689	177
237.922	145
238.156	135
238.39	147
238.624	121
238.858	118
239.091	126
239.325	130
239.559	126
239.793	130
240.027	139
240.26	148
240.494	155
240.728	151
240.961	151
241.195	139
241.429	147
241.662	139
241.896	144
242.13	123
242.363	139
242.597	139
242.83	142
243.064	131
243.298	135
243.531	143
243.765	141
243.998	145
244.232	139
244.465	136
244.699	133
244.932	151
245.166	135
245.399	129
245.633	144
245.866	145
246.099	148
246.333	144
246.566	146
246.8	155
247.033	148
247.266	144
247.5	141
247.733	163
247.966	181
248.2	179
248.433	179
248.666	173
248.899	192
249.133	209
249.366	209
249.599	202
249.832	179
250.066	181
250.299	183
250.532	191
250.765	185
250.998	212
251.231	221
251.465	196
251.698	200
251.931	202
252.164	199
252.397	204
252.63	210
252.863	222
253.096	205
253.329	207
253.562	222
253.795	220
254.028	218
254.261	232
254.494	250
254.727	251
254.96	282
255.193	263
255.426	251
255.659	214
255.892	214
256.124	230
256.357	214
256.59	215
256.823	206
257.056	188
257.289	213
257.521	219
257.754	214
257.987	205
258.22	206
258.452	205
258.685	201
258.918	215
259.151	207
259.383	218
259.616	209
259.849	232
260.081	247
260.314	257
260.547	258
260.779	237
261.012	225
261.244	232
261.477	237
261.71	224
261.942	239
262.175	260
262.407	242
262.64	214
262.872	240
263.105	225
263.337	221
263.57	221
263.802	215
264.035	211
264.267	218
264.499	220
264.732	204
264.964	198
265.197	221
265.429	207
265.661	197
265.894	216
266.126	195
266.358	207
266.591	226
266.823	216
267.055	226
267.287	228
267.52	213
267.752	222
267.984	229
268.216	216
268.448	230
268.681	225
268.913	243
269.145	257
269.377	267
269.609	267
269.841	268
270.073	283
270.306	300
270.538	302
270.77	316
271.002	307
271.234	316
271.466	296
271.698	329
271.93	349
272.162	317
272.394	306
272.626	301
272.858	297
273.09	298
273.322	289
273.553	278
273.785	287
274.017	285
274.249	259
274.481	294
274.713	270
274.945	274
275.176	284
275.408	277
275.64	277
275.872	277
276.104	268
276.335	263
276.567	303
276.799	287
277.031	319
277.262	326
277.494	325
277.726	323
277.957	300
278.189	284
278.421	284
278.652	294
278.884	287
279.115	296
279.347	336
279.579	377
279.81	439
280.042	387
280.273	353
280.505	362
280.736	333
280.968	297
281.199	267
281.431	267
281.662	253
281.894	283
282.125	277
282.356	317
282.588	315
282.819	339
283.051	297
283.282	277
283.513	270
283.745	273
283.976	274
284.207	288
284.439	282
284.67	258
284.901	284
285.132	284
285.364	286
285.595	293
285.826	283
286.057	281
286.288	288
286.52	286
286.751	285
286.982	262
287.213	287
287.444	277
287.675	279
287.906	287
288.138	322
288.369	319
288.6	313
288.831	290
289.062	311
289.293	275
289.524	287
289.755	306
289.986	281
290.217	283
290.448	270
290.679	289
290.91	277
291.141	277
291.371	261
291.602	270
291.833	298
292.064	264
292.295	291
292.526	271
292.757	269
292.987	283
293.218	295
293.449	299
293.68	281
293.91	307
294.141	294
294.372	292
294.603	281
294.833	293
295.064	305
295.295	266
295.525	285
295.756	305
295.987	332
296.217	335
296.448	334
296.679	315
296.909	294
297.14	290
297.37	287
297.601	295
297.831	284
298.062	298
298.292	301
298.523	308
298.753	309
298.984	305
299.214	305
299.445	292
299.675	309
299.905	313
300.136	325
300.366	309
300.597	312
300.827	283
301.057	318
301.288	333
301.518	328
301.748	315
301.979	322
302.209	354
302.439	330
302.669	314
302.9	315
303.13	324
303.36	307
303.59	325
303.82	313
304.051	325
304.281	325
304.511	309
304.741	310
304.971	300
305.201	330
305.431	324
305.661	306
305.891	327
306.121	333
306.352	341
306.582	330
306.812	326
307.042	327
307.272	314
307.502	332
307.731	328
307.961	333
308.191	336
308.421	334
308.651	352
308.881	342
309.111	348
309.341	356
309.571	362
309.8	393
310.03	409
310.26	385
310.49	420
310.72	420
310.949	424
311.179	427
311.409	415
311.639	391
311.868	396
312.098	401
312.328	428
312.557	439
312.787	454
313.017	445
313.246	419
313.476	381
313.706	414
313.935	411
314.165	393
314.394	441
314.624	435
314.853	415
315.083	417
315.312	381
315.542	374
315.771	353
316.001	373
316.23	389
316.46	388
316.689	387
316.919	392
317.148	386
317.377	413
317.607	395
317.836	407
318.065	427
318.295	424
318.524	395
318.753	397
318.983	402
319.212	376
319.441	400
319.67	410
319.9	380
320.129	375
320.358	349
320.587	395
320.816	412
321.046	424
321.275	446
321.504	421
321.733	425
321.962	449
322.191	467
322.42	484
322.649	505
322.878	519
323.108	529
323.337	585
323.566	614
323.795	673
324.024	757
324.253	998
324.482	1501
324.71	2270
324.939	2925
325.168	2457
325.397	1271
325.626	842
325.855	661
326.084	607
326.313	602
326.542	625
326.77	700
326.999	870
327.228	1306
327.457	1911
327.686	2178
327.914	1415
328.143	947
328.372	804
328.6	720
328.829	668
329.058	714
329.287	724
329.515	641
329.744	593
329.972	549
330.201	583
330.43	643
330.658	690
330.887	740
331.115	729
331.344	592
331.572	545
331.801	550
332.03	540
332.258	504
332.486	455
332.715	453
332.943	460
333.172	465
333.4	460
333.629	459
333.857	461
334.085	468
334.314	473
334.542	490
334.771	477
334.999	483
335.227	469
335.455	449
335.684	425
335.912	428
336.14	432
336.369	429
336.597	437
336.825	443
337.053	437
337.281	425
337.51	443
337.738	453
337.966	421
338.194	438
338.422	465
338.65	421
338.878	414
339.106	416
339.334	426
339.562	427
339.79	426
340.018	430
340.246	426
340.474	422
340.702	425
340.93	409
341.158	408
341.386	437
341.614	447
341.842	397
342.07	417
342.298	389
342.526	404
342.754	394
342.981	387
343.209	394
343.437	421
343.665	401
343.893	399
344.12	430
344.348	417
344.576	410
344.804	431
345.031	452
345.259	445
345.487	423
345.714	411
345.942	419
346.17	397
346.397	410
346.625	406
346.853	406
347.08	403
347.308	415
347.535	427
347.763	449
347.99	423
348.218	445
348.445	449
348.673	445
348.9	423
349.128	411
349.355	383
349.583	407
349.81	387
350.037	399
350.265	394
350.492	374
350.72	387
350.947	413
351.174	417
351.402	429
351.629	422
351.856	412
352.083	437
352.311	453
352.538	432
352.765	446
352.992	426
353.22	420
353.447	402
353.674	420
353.901	394
354.128	391
354.355	370
354.583	380
354.81	380
355.037	365
355.264	365
355.491	355
355.718	359
355.945	343
356.172	342
356.399	353
356.626	361
356.853	349
357.08	347
357.307	356
357.534	340
357.761	363
357.988	362
358.215	358
358.441	373
358.668	359
358.895	371
359.122	383
359.349	397
359.576	430
359.802	465
360.029	501
360.256	503
360.483	495
360.709	408
360.936	391
361.163	403
361.39	407
361.616	419
361.843	416
362.07	413
362.296	399
362.523	403
362.749	406
362.976	385
363.203	387
363.429	388
363.656	385
363.882	379
364.109	372
364.335	371
364.562	374
364.788	358
365.015	382
365.241	393
365.468	371
365.694	373
365.92	366
366.147	377
366.373	359
366.599	340
366.826	350
367.052	363
367.278	355
367.505	359
367.731	362
367.957	362
368.184	369
368.41	370
368.636	391
368.862	366
369.089	350
369.315	348
369.541	345
369.767	358
369.993	349
370.219	355
370.445	353
370.672	349
370.898	358
371.124	355
371.35	356
371.576	335
371.802	331
372.028	357
372.254	356
372.48	332
372.706	327
372.932	352
373.158	334
373.384	353
373.61	354
373.835	344
374.061	354
374.287	362
374.513	355
374.739	343
374.965	350
375.191	353
375.416	356
375.642	351
375.868	349
376.094	345
376.319	353
376.545	346
376.771	338
376.997	349
377.222	341
377.448	347
377.674	332
377.899	317
378.125	354
378.35	337
378.576	327
378.802	331
379.027	332
379.253	332
379.478	325
379.704	333
379.929	330
380.155	333
380.38	337
380.606	339
380.831	341
381.057	357
381.282	337
381.507	330
381.733	331
381.958	334
382.184	342
382.409	358
382.634	343
382.86	351
383.085	348
383.31	349
383.535	356
383.761	361
383.986	364
384.211	350
384.436	357
384.662	347
384.887	362
385.112	346
385.337	359
385.562	353
385.787	374
386.013	371
386.238	382
386.463	383
386.688	342
386.913	363
387.138	374
387.363	357
387.588	359
387.813	374
388.038	362
388.263	347
388.488	357
388.713	357
388.938	355
389.163	348
389.387	362
389.612	351
389.837	335
390.062	353
390.287	357
390.512	344
390.736	343
390.961	371
391.186	356
391.411	342
391.636	343
391.86	363
392.085	362
392.31	364
392.534	365
392.759	397
392.984	387
393.208	496
393.433	619
393.658	630
393.882	410
394.107	380
394.331	370
394.556	378
394.78	354
395.005	368
395.229	341
395.454	369
395.678	377
395.903	351
396.127	385
396.352	419
396.576	425
396.801	487
397.025	546
397.249	469
397.474	393
397.698	385
397.922	378
398.147	383
398.371	403
398.595	393
398.82	397
399.044	385
399.268	414
399.492	403
399.717	394
399.941	418
400.165	470
400.389	498
400.613	429
400.837	406
401.062	413
401.286	411
401.51	390
401.734	405
401.958	395
402.182	398
402.406	411
402.63	413
402.854	403
403.078	403
403.302	417
403.526	400
403.75	405
403.974	396
404.198	413
404.422	415
404.645	411
404.869	429
405.093	432
405.317	453
405.541	477
405.765	464
405.988	423
406.212	441
406.436	488
406.66	493
406.883	436
407.107	467
407.331	499
407.555	557
407.778	548
408.002	516
408.226	472
408.449	446
408.673	445
408.896	433
409.12	489
409.344	456
409.567	444
409.791	426
410.014	407
410.238	423
410.461	400
410.685	412
410.908	418
411.132	445
411.355	473
411.578	454
411.802	419
412.025	410
412.249	409
412.472	406
412.695	411
412.919	415
413.142	390
413.365	385
413.589	373
413.812	364
414.035	380
414.258	385
414.482	380
414.705	375
414.928	372
415.151	356
415.374	368
415.597	389
415.821	365
416.044	389
416.267	383
416.49	380
416.713	385
416.936	381
417.159	377
417.382	394
417.605	389
417.828	393
418.051	397
418.274	396
418.497	391
418.72	372
418.943	366
419.166	383
419.389	401
419.611	399
419.834	380
420.057	379
420.28	394
420.503	382
420.726	395
420.948	381
421.171	447
421.394	443
421.617	426
421.839	399
422.062	410
422.285	441
422.507	494
422.73	590
422.953	558
423.175	462
423.398	430
423.621	409
423.843	425
424.066	442
424.288	451
424.511	449
424.733	479
424.956	594
425.178	549
425.401	533
425.623	538
425.846	491
426.068	452
426.291	439
426.513	457
426.735	444
426.958	469
427.18	573
427.402	670
427.625	767
427.847	703
428.069	572
428.292	476
428.514	475
428.736	434
428.958	435
429.181	423
429.403	418
429.625	415
429.847	460
430.069	493
430.292	515
430.514	434
430.736	397
430.958	411
431.18	410
431.402	380
431.624	381
431.846	358
432.068	392
432.29	373
432.512	378
432.734	384
432.956	380
433.178	399
433.4	404
433.622	399
433.844	386
434.066	378
434.287	376
434.509	391
434.731	389
434.953	407
435.175	397
435.397	417
435.618	441
435.84	486
436.062	553
436.284	602
436.505	491
436.727	445
436.949	429
437.17	434
437.392	409
437.614	441
437.835	483
438.057	552
438.278	635
438.5	649
438.721	681
438.943	637
439.165	541
439.386	499
439.608	479
439.829	488
440.05	537
440.272	566
440.493	528
440.715	465
440.936	424
441.158	427
441.379	412
441.6	429
441.822	460
442.043	490
442.264	548
442.486	591
442.707	494
442.928	472
443.149	477
443.371	517
443.592	555
443.813	600
444.034	641
444.255	521
444.476	473
444.698	428
444.919	435
445.14	531
445.361	512
445.582	506
445.803	567
446.024	674
446.245	657
446.466	598
446.687	515
446.908	469
447.129	436
447.35	412
447.571	424
447.792	418
448.013	431
448.234	444
448.455	512
448.675	591
448.896	662
449.117	577
449.338	542
449.559	610
449.779	690
450	554
450.221	482
450.442	441
450.662	429
450.883	445
451.104	473
451.324	453
451.545	425
451.766	401
451.986	381
452.207	385
452.428	385
452.648	392
452.869	374
453.089	395
453.31	414
453.53	387
453.751	405
453.971	405
454.192	428
454.412	405
454.633	402
454.853	402
455.073	391
455.294	426
455.514	472
455.734	466
455.955	369
456.175	364
456.395	351
456.616	352
456.836	350
457.056	355
457.276	348
457.497	359
457.717	368
457.937	359
458.157	359
458.377	369
458.598	405
458.818	489
459.038	581
459.258	573
459.478	464
459.698	407
459.918	391
460.138	372
460.358	405
460.578	386
460.798	369
461.018	415
461.238	377
461.458	369
461.678	382
461.898	358
462.118	383
462.338	384
462.558	394
462.777	387
462.997	389
463.217	402
463.437	426
463.657	386
463.876	395
464.096	393
464.316	406
464.536	408
464.755	411
464.975	439
465.195	529
465.414	645
465.634	513
465.854	447
466.073	427
466.293	391
466.512	366
466.732	378
466.951	377
467.171	387
467.391	380
467.61	399
467.829	435
468.049	411
468.268	398
468.488	385
468.707	369
468.927	378
469.146	362
469.365	371
469.585	376
469.804	394
470.023	385
470.243	400
470.462	397
470.681	428
470.901	437
471.12	389
471.339	394
471.558	394
471.777	381
471.997	376
472.216	365
472.435	415
472.654	397
472.873	394
473.092	374
473.311	370
473.53	396
473.749	413
473.968	430
474.187	526
474.406	548
474.625	437
474.844	388
475.063	385
475.282	379
475.501	382
475.72	397
475.939	383
476.158	410
476.377	395
476.596	397
476.814	408
477.033	417
477.252	418
477.471	417
477.69	430
477.908	427
478.127	423
478.346	421
478.564	398
478.783	422
479.002	429
479.22	439
479.439	465
479.658	492
479.876	485
480.095	475
480.313	486
480.532	482
480.751	462
480.969	483
481.188	501
481.406	533
481.624	480
481.843	462
482.061	433
482.28	436
482.498	447
482.717	425
482.935	439
483.153	463
483.372	457
483.59	447
483.808	442
484.027	447
484.245	439
484.463	453
484.681	446
484.9	444
485.118	462
485.336	462
485.554	471
485.772	472
485.99	460
486.209	485
486.427	477
486.645	483
486.863	520
487.081	511
487.299	510
487.517	486
487.735	470
487.953	490
488.171	485
488.389	481
488.607	477
488.825	493
489.043	478
489.261	472
489.479	487
489.696	479
489.914	491
490.132	501
490.35	509
490.568	490
490.786	525
491.003	518
491.221	503
491.439	516
491.657	533
491.874	548
492.092	521
492.31	523
492.527	554
492.745	532
492.963	535
493.18	547
493.398	542
493.615	567
493.833	563
494.05	557
494.268	549
494.485	569
494.703	535
494.92	541
495.138	571
495.355	551
495.573	566
495.79	564
496.008	561
496.225	600
496.442	555
496.66	559
496.877	571
497.094	552
497.312	541
497.529	575
497.746	554
497.963	575
498.181	592
498.398	602
498.615	590
498.832	613
499.049	593
499.267	617
499.484	606
499.701	638
499.918	646
500.135	675
500.352	644
500.569	677
500.786	697
501.003	700
501.22	654
501.437	669
501.654	675
501.871	706
502.088	690
502.305	635
502.522	616
502.739	615
502.956	591
503.172	585
503.389	594
503.606	635
503.823	629
504.04	579
504.256	588
504.473	549
504.69	543
504.907	550
505.123	565
505.34	551
505.557	547
505.773	538
505.99	557
506.207	555
506.423	555
506.64	537
506.856	510
507.073	533
507.289	535
507.506	567
507.722	598
507.939	597
508.155	564
508.372	556
508.588	543
508.805	519
509.021	550
509.238	553
509.454	535
509.67	557
509.887	556
510.103	539
510.319	599
510.536	749
510.752	1394
510.968	1073
511.184	627
511.401	560
511.617	545
511.833	518
512.049	503
512.265	530
512.481	506
512.698	519
512.914	535
513.13	525
513.346	515
513.562	543
513.778	542
513.994	575
514.21	562
514.426	620
514.642	704
514.858	755
515.074	853
515.29	1095
515.506	1729
515.721	1274
515.937	817
516.153	692
516.369	627
516.585	570
516.801	582
517.016	556
517.232	572
517.448	549
517.664	541
517.879	549
518.095	532
518.311	551
518.527	557
518.742	572
518.958	521
519.173	561
519.389	544
519.605	552
519.82	572
520.036	578
520.251	634
520.467	664
520.682	671
520.898	717
521.113	760
521.329	831
521.544	1024
521.76	1414
521.975	2422
522.19	2208
522.406	1126
522.621	781
522.836	638
523.052	589
523.267	567
523.482	522
523.698	539
523.913	536
524.128	534
524.343	495
524.559	481
524.774	496
524.989	504
525.204	483
525.419	500
525.634	468
525.849	462
526.064	421
526.28	433
526.495	453
526.71	423
526.925	440
527.14	429
527.355	429
527.57	434
527.785	442
527.999	437
528.214	430
528.429	420
528.644	422
528.859	431
529.074	463
529.289	458
529.503	603
529.718	581
529.933	508
530.148	451
530.363	418
530.577	424
530.792	415
531.007	419
531.221	423
531.436	410
531.651	402
531.865	390
532.08	415
532.295	399
532.509	405
532.724	399
532.938	395
533.153	385
533.367	367
533.582	376
533.796	383
534.011	379
534.225	384
534.44	373
534.654	394
534.868	375
535.083	375
535.297	389
535.511	391
535.726	419
535.94	400
536.154	406
536.369	414
536.583	397
536.797	379
537.011	380
537.225	375
537.44	380
537.654	371
537.868	393
538.082	381
538.296	365
538.51	383
538.724	366
538.938	369
539.153	391
539.367	415
539.581	437
539.795	395
540.009	389
540.222	380
540.436	375
540.65	385
540.864	389
541.078	407
541.292	383
541.506	387
541.72	376
541.934	376
542.147	375
542.361	387
542.575	382
542.789	365
543.002	364
543.216	378
543.43	388
543.644	390
543.857	393
544.071	379
544.285	379
544.498	377
544.712	367
544.925	369
545.139	371
545.352	364
545.566	359
545.779	354
545.993	351
546.206	381
546.42	363
546.633	361
546.847	353
547.06	338
547.274	345
547.487	351
547.7	330
547.914	329
548.127	370
548.34	345
548.554	353
548.767	341
548.98	350
549.193	356
549.407	351
549.62	346
549.833	348
550.046	350
550.259	373
550.473	334
550.686	331
550.899	335
551.112	364
551.325	346
551.538	353
551.751	325
551.964	349
552.177	357
552.39	354
552.603	329
552.816	352
553.029	354
553.242	364
553.455	344
553.667	379
553.88	381
554.093	370
554.306	379
554.519	370
554.732	355
554.944	350
555.157	332
555.37	325
555.583	324
555.795	354
556.008	337
556.221	343
556.433	309
556.646	338
556.859	323
557.071	329
557.284	330
557.496	316
557.709	306
557.921	310
558.134	330
558.346	329
558.559	318
558.771	333
558.984	334
559.196	331
559.409	354
559.621	335
559.833	340
560.046	311
560.258	317
560.47	329
560.683	325
560.895	311
561.107	308
561.32	321
561.532	310
561.744	327
561.956	311
562.168	323
562.381	317
562.593	319
562.805	323
563.017	330
563.229	311
563.441	320
563.653	313
563.865	331
564.077	313
564.289	325
564.501	307
564.713	327
564.925	338
565.137	357
565.349	330
565.561	318
565.773	330
565.985	335
566.197	327
566.408	335
566.62	347
566.832	359
567.044	353
567.255	355
567.467	364
567.679	354
567.891	358
568.102	383
568.314	355
568.526	360
568.737	361
568.949	332
569.161	326
569.372	330
569.584	338
569.795	327
570.007	315
570.218	409
570.43	364
570.641	305
570.853	326
571.064	302
571.276	301
571.487	286
571.698	311
571.91	294
572.121	287
572.333	294
572.544	290
572.755	278
572.966	299
573.178	289
573.389	283
573.6	288
573.811	285
574.023	279
574.234	278
574.445	266
574.656	296
574.867	287
575.078	286
575.289	286
575.501	277
575.712	286
575.923	290
576.134	274
576.345	265
576.556	287
576.767	280
576.978	276
577.188	279
577.399	289
577.61	271
577.821	269
578.032	273
578.243	337
578.454	701
578.665	471
578.875	287
579.086	269
579.297	261
579.508	254
579.718	261
579.929	288
580.14	270
580.35	270
580.561	266
580.772	253
580.982	276
581.193	266
581.403	238
581.614	237
581.825	274
582.035	259
582.246	263
582.456	257
582.667	265
582.877	265
583.087	252
583.298	281
583.508	254
583.719	237
583.929	263
584.139	253
584.35	270
584.56	258
584.77	247
584.981	263
585.191	261
585.401	269
585.611	254
585.821	262
586.032	269
586.242	256
586.452	243
586.662	251
586.872	265
587.082	229
587.292	259
587.502	265
587.713	250
587.923	250
588.133	275
588.343	270
588.553	286
588.762	322
588.972	439
589.182	870
589.392	848
589.602	529
589.812	769
590.022	589
590.232	356
590.441	299
590.651	270
590.861	266
591.071	259
591.281	257
591.49	240
591.7	247
591.91	246
592.119	257
592.329	263
592.539	268
592.748	269
592.958	239
593.167	242
593.377	254
593.587	250
593.796	241
594.006	243
594.215	251
594.424	255
594.634	259
594.843	237
595.053	271
595.262	236
595.472	237
595.681	244
595.89	232
596.1	246
596.309	241
596.518	235
596.727	222
596.937	257
597.146	247
597.355	218
597.564	243
597.774	245
597.983	232
598.192	221
598.401	231
598.61	219
598.819	221
599.028	233
599.237	225
599.446	223
599.655	230
599.864	226
600.073	226
600.282	234
600.491	233
600.7	213
600.909	220
601.118	215
601.327	227
601.536	212
601.745	229
601.953	221
602.162	196
602.371	211
602.58	229
602.789	223
602.997	207
603.206	238
603.415	215
603.623	213
603.832	213
604.041	220
604.249	194
604.458	218
604.666	207
604.875	192
605.084	217
605.292	212
605.501	197
605.709	210
605.918	213
606.126	212
606.334	222
606.543	213
606.751	200
606.96	192
607.168	208
607.376	218
607.585	213
607.793	210
608.001	209
608.21	212
608.418	204
608.626	193
608.834	202
609.043	206
609.251	199
609.459	201
609.667	200
609.875	209
610.083	214
610.291	220
610.499	211
610.707	198
610.916	194
611.124	213
611.332	217
611.54	204
611.748	232
611.955	209
612.163	219
612.371	208
612.579	207
612.787	203
612.995	195
613.203	189
613.411	222
613.618	202
613.826	221
614.034	216
614.242	218
614.449	204
614.657	215
614.865	196
615.072	198
615.28	193
615.488	212
615.695	195
615.903	195
616.111	210
616.318	219
616.526	219
616.733	212
616.941	210
617.148	215
617.356	201
617.563	220
617.771	205
617.978	187
618.185	202
618.393	194
618.6	202
618.807	219
619.015	219
619.222	203
619.429	189
619.637	185
619.844	205
620.051	192
620.258	209
620.466	181
620.673	215
620.88	186
621.087	210
621.294	189
621.501	180
621.708	194
621.915	198
622.122	211
622.329	193
622.536	213
622.743	201
622.95	209
623.157	187
623.364	185
623.571	205
623.778	193
623.985	183
624.192	192
624.399	197
624.606	194
624.812	177
625.019	185
625.226	190
625.433	201
625.639	187
625.846	175
626.053	182
626.259	180
626.466	189
626.673	181
626.879	183
627.086	192
627.293	219
627.499	208
627.706	192
627.912	183
628.119	170
628.325	189
628.532	185
628.738	188
628.945	174
629.151	169
629.357	178
629.564	188
629.77	186
629.976	168
630.183	181
630.389	181
630.595	168
630.802	181
631.008	177
631.214	172
631.42	188
631.627	187
631.833	185
632.039	164
632.245	175
632.451	150
632.657	176
632.863	177
633.069	165
633.275	166
633.481	157
633.688	161
633.893	174
634.099	183
634.305	169
634.511	184
634.717	179
634.923	159
635.129	159
635.335	180
635.541	165
635.747	167
635.952	178
636.158	152
636.364	180
636.57	161
636.775	160
636.981	168
637.187	167
637.392	178
637.598	175
637.804	163
638.009	181
638.215	169
638.421	171
638.626	151
638.832	167
639.037	166
639.243	158
639.448	164
639.654	160
639.859	166
640.065	157
640.27	164
640.475	167
640.681	167
640.886	162
641.091	157
641.297	167
641.502	149
641.707	154
641.913	175
642.118	151
642.323	148
642.528	155
642.733	154
642.939	162
643.144	165
643.349	146
643.554	166
643.759	154
643.964	156
644.169	177
644.374	163
644.579	179
644.784	166
644.989	152
645.194	133
645.399	163
645.604	162
645.809	172
646.014	149
646.219	154
646.423	150
646.628	157
646.833	165
647.038	159
647.243	159
647.447	162
647.652	164
647.857	163
648.062	152
648.266	163
648.471	156
648.676	171
648.88	161
649.085	174
649.289	180
649.494	163
649.698	177
649.903	186
650.107	167
650.312	151
650.516	153
650.721	174
650.925	157
651.13	134
651.334	152
651.539	149
651.743	171
651.947	146
652.152	141
652.356	150
652.56	142
652.764	154
652.969	150
653.173	144
653.377	151
653.581	142
653.785	145
653.99	140
654.194	133
654.398	130
654.602	129
654.806	150
655.01	165
655.214	157
655.418	133
655.622	149
655.826	144
656.03	156
656.234	142
656.438	139
656.642	142
656.846	154
657.049	137
657.253	139
657.457	128
657.661	133
657.865	119
658.068	113
658.272	134
658.476	112
658.68	108
658.883	121
659.087	96
659.291	100
659.494	103
659.698	110
659.901	118
660.105	102
660.309	98
660.512	98
660.716	103
660.919	93
661.123	96
661.326	95
661.53	85
661.733	99
661.936	102
662.14	82
662.343	90
662.546	73
662.75	95
662.953	107
663.156	78
663.36	96
663.563	92
663.766	89
663.969	87
664.173	79
664.376	79
664.579	82
664.782	91
664.985	83
665.188	82
665.391	93
665.594	89
665.797	85
666	84
666.203	70
666.406	85
666.609	78
666.812	80
667.015	97
667.218	89
667.421	81
667.624	85
667.827	98
668.03	93
668.232	73
668.435	78
668.638	77
668.841	89
669.043	88
669.246	85
669.449	85
669.651	71
669.854	88
670.057	84
670.259	76
670.462	86
670.665	81
670.867	81
671.07	83
671.272	86
671.475	92
671.677	82
671.88	76
672.082	83
672.284	84
672.487	87
672.689	83
672.892	97
