Data from 1981.PennyLincolnUp.Lamp.En5.5.200Scan.071819.P1_HRD10591_16-42-21-960.txt Node
Date: Thu Jul 18 16:42:21 EDT 2019
User: cochatt
Spectrometer: HR+D1059
Trigger mode: 1
Integration Time (sec): 1.000000E-1
Scans to average: 1
Electric dark correction enabled: true
Nonlinearity correction enabled: false
Boxcar width: 0
XAxis mode: Wavelengths
Number of Pixels in Spectrum: 2048
>>>>>Begin Spectral Data<<<<<
223.165	-28
223.4	-28
223.635	-28
223.869	-18
224.104	-10
224.338	-14
224.573	-8
224.808	-14
225.042	-7
225.277	-6
225.511	7
225.746	3
225.98	1
226.215	-5
226.449	25
226.683	9
226.918	19
227.152	46
227.387	21
227.621	27
227.856	37
228.09	42
228.324	54
228.559	49
228.793	63
229.027	110
229.262	111
229.496	121
229.73	121
229.964	155
230.199	140
230.433	105
230.667	120
230.901	103
231.136	114
231.37	115
231.604	111
231.838	121
232.072	124
232.306	121
232.541	121
232.775	115
233.009	120
233.243	106
233.477	117
233.711	113
233.945	113
234.179	120
234.413	133
234.647	125
234.881	129
235.115	106
235.349	119
235.583	118
235.817	118
236.051	130
236.285	123
236.519	140
236.753	130
236.987	138
237.221	204
237.455	244
237.689	189
237.922	143
238.156	133
238.39	136
238.624	135
238.858	115
239.091	130
239.325	136
239.559	113
239.793	123
240.027	136
240.26	141
240.494	165
240.728	156
240.961	149
241.195	150
241.429	150
241.662	124
241.896	128
242.13	137
242.363	140
242.597	129
242.83	129
243.064	130
243.298	126
243.531	140
243.765	144
243.998	147
244.232	149
244.465	121
244.699	145
244.932	150
245.166	141
245.399	147
245.633	156
245.866	135
246.099	157
246.333	154
246.566	147
246.8	159
247.033	153
247.266	165
247.5	171
247.733	181
247.966	184
248.2	163
248.433	179
248.666	185
248.899	192
249.133	208
249.366	220
249.599	185
249.832	193
250.066	187
250.299	193
250.532	197
250.765	204
250.998	245
251.231	225
251.465	207
251.698	218
251.931	213
252.164	212
252.397	206
252.63	212
252.863	231
253.096	218
253.329	236
253.562	243
253.795	235
254.028	246
254.261	245
254.494	250
254.727	272
254.96	299
255.193	299
255.426	262
255.659	246
255.892	251
256.124	248
256.357	243
256.59	231
256.823	224
257.056	222
257.289	237
257.521	221
257.754	232
257.987	214
258.22	213
258.452	223
258.685	227
258.918	219
259.151	238
259.383	236
259.616	233
259.849	234
260.081	242
260.314	269
260.547	275
260.779	265
261.012	242
261.244	259
261.477	236
261.71	245
261.942	236
262.175	254
262.407	238
262.64	235
262.872	238
263.105	220
263.337	229
263.57	214
263.802	222
264.035	225
264.267	229
264.499	220
264.732	215
264.964	215
265.197	219
265.429	226
265.661	221
265.894	208
266.126	218
266.358	223
266.591	224
266.823	226
267.055	228
267.287	250
267.52	241
267.752	254
267.984	247
268.216	238
268.448	245
268.681	258
268.913	252
269.145	282
269.377	308
269.609	291
269.841	282
270.073	297
270.306	306
270.538	327
270.77	330
271.002	331
271.234	303
271.466	311
271.698	327
271.93	333
272.162	333
272.394	337
272.626	323
272.858	316
273.09	293
273.322	284
273.553	285
273.785	286
274.017	280
274.249	277
274.481	269
274.713	293
274.945	263
275.176	283
275.408	294
275.64	284
275.872	273
276.104	270
276.335	284
276.567	285
276.799	290
277.031	325
277.262	340
277.494	328
277.726	322
277.957	301
278.189	293
278.421	291
278.652	281
278.884	291
279.115	277
279.347	258
279.579	276
279.81	265
280.042	264
280.273	276
280.505	278
280.736	270
280.968	261
281.199	274
281.431	274
281.662	266
281.894	297
282.125	268
282.356	300
282.588	331
282.819	307
283.051	284
283.282	281
283.513	277
283.745	293
283.976	292
284.207	275
284.439	265
284.67	285
284.901	287
285.132	277
285.364	283
285.595	287
285.826	255
286.057	277
286.288	261
286.52	281
286.751	287
286.982	285
287.213	282
287.444	300
287.675	285
287.906	298
288.138	295
288.369	299
288.6	300
288.831	295
289.062	299
289.293	284
289.524	309
289.755	316
289.986	297
290.217	288
290.448	280
290.679	313
290.91	292
291.141	292
291.371	289
291.602	287
291.833	295
292.064	298
292.295	282
292.526	302
292.757	295
292.987	287
293.218	293
293.449	300
293.68	294
293.91	290
294.141	302
294.372	292
294.603	299
294.833	300
295.064	310
295.295	298
295.525	309
295.756	334
295.987	310
296.217	337
296.448	346
296.679	324
296.909	307
297.14	315
297.37	295
297.601	305
297.831	298
298.062	288
298.292	298
298.523	318
298.753	302
298.984	307
299.214	311
299.445	303
299.675	308
299.905	296
300.136	299
300.366	310
300.597	314
300.827	326
301.057	313
301.288	325
301.518	316
301.748	329
301.979	334
302.209	315
302.439	315
302.669	337
302.9	317
303.13	322
303.36	336
303.59	316
303.82	337
304.051	326
304.281	333
304.511	327
304.741	314
304.971	332
305.201	326
305.431	313
305.661	329
305.891	335
306.121	331
306.352	338
306.582	352
306.812	346
307.042	348
307.272	321
307.502	322
307.731	330
307.961	339
308.191	328
308.421	335
308.651	350
308.881	331
309.111	354
309.341	349
309.571	357
309.8	378
310.03	370
310.26	395
310.49	395
310.72	396
310.949	430
311.179	406
311.409	391
311.639	365
311.868	403
312.098	401
312.328	419
312.557	433
312.787	428
313.017	429
313.246	406
313.476	385
313.706	379
313.935	390
314.165	410
314.394	407
314.624	399
314.853	414
315.083	387
315.312	385
315.542	389
315.771	375
316.001	380
316.23	377
316.46	382
316.689	380
316.919	381
317.148	403
317.377	421
317.607	386
317.836	399
318.065	383
318.295	364
318.524	399
318.753	391
318.983	386
319.212	390
319.441	409
319.67	395
319.9	406
320.129	409
320.358	407
320.587	382
320.816	393
321.046	430
321.275	415
321.504	403
321.733	416
321.962	414
322.191	441
322.42	427
322.649	455
322.878	485
323.108	515
323.337	527
323.566	540
323.795	586
324.024	654
324.253	821
324.482	1177
324.71	1823
324.939	2445
325.168	2080
325.397	1083
325.626	745
325.855	625
326.084	559
326.313	557
326.542	555
326.77	625
326.999	755
327.228	1042
327.457	1555
327.686	1818
327.914	1227
328.143	842
328.372	714
328.6	668
328.829	640
329.058	649
329.287	646
329.515	602
329.744	539
329.972	537
330.201	551
330.43	612
330.658	638
330.887	677
331.115	645
331.344	540
331.572	521
331.801	524
332.03	526
332.258	477
332.486	472
332.715	466
332.943	467
333.172	460
333.4	463
333.629	469
333.857	475
334.085	472
334.314	499
334.542	531
334.771	551
334.999	488
335.227	463
335.455	444
335.684	443
335.912	446
336.14	439
336.369	433
336.597	466
336.825	442
337.053	430
337.281	429
337.51	433
337.738	421
337.966	435
338.194	439
338.422	433
338.65	430
338.878	446
339.106	431
339.334	410
339.562	429
339.79	428
340.018	392
340.246	414
340.474	448
340.702	416
340.93	421
341.158	433
341.386	433
341.614	430
341.842	431
342.07	398
342.298	396
342.526	413
342.754	412
342.981	419
343.209	399
343.437	410
343.665	411
343.893	423
344.12	413
344.348	398
344.576	418
344.804	419
345.031	451
345.259	455
345.487	440
345.714	425
345.942	411
346.17	398
346.397	399
346.625	434
346.853	423
347.08	411
347.308	399
347.535	406
347.763	417
347.99	424
348.218	410
348.445	428
348.673	439
348.9	403
349.128	407
349.355	404
349.583	408
349.81	404
350.037	397
350.265	385
350.492	398
350.72	399
350.947	390
351.174	410
351.402	428
351.629	423
351.856	414
352.083	411
352.311	438
352.538	437
352.765	410
352.992	430
353.22	387
353.447	411
353.674	405
353.901	383
354.128	383
354.355	365
354.583	389
354.81	383
355.037	372
355.264	357
355.491	379
355.718	378
355.945	363
356.172	378
356.399	371
356.626	351
356.853	364
357.08	383
357.307	375
357.534	366
357.761	356
357.988	374
358.215	377
358.441	373
358.668	375
358.895	375
359.122	409
359.349	381
359.576	418
359.802	417
360.029	445
360.256	452
360.483	441
360.709	415
360.936	395
361.163	405
361.39	395
361.616	421
361.843	387
362.07	404
362.296	402
362.523	390
362.749	406
362.976	394
363.203	375
363.429	380
363.656	384
363.882	373
364.109	380
364.335	362
364.562	375
364.788	359
365.015	344
365.241	363
365.468	375
365.694	373
365.92	374
366.147	361
366.373	380
366.599	367
366.826	363
367.052	372
367.278	377
367.505	365
367.731	385
367.957	365
368.184	360
368.41	362
368.636	383
368.862	406
369.089	391
369.315	377
369.541	375
369.767	378
369.993	366
370.219	366
370.445	375
370.672	358
370.898	368
371.124	379
371.35	360
371.576	361
371.802	355
372.028	353
372.254	362
372.48	346
372.706	347
372.932	360
373.158	347
373.384	363
373.61	359
373.835	371
374.061	359
374.287	358
374.513	355
374.739	364
374.965	364
375.191	360
375.416	364
375.642	346
375.868	369
376.094	363
376.319	356
376.545	355
376.771	364
376.997	363
377.222	349
377.448	354
377.674	349
377.899	346
378.125	342
378.35	355
378.576	338
378.802	353
379.027	337
379.253	360
379.478	363
379.704	327
379.929	353
380.155	331
380.38	349
380.606	337
380.831	334
381.057	365
381.282	363
381.507	341
381.733	343
381.958	364
382.184	351
382.409	343
382.634	347
382.86	350
383.085	347
383.31	347
383.535	365
383.761	352
383.986	354
384.211	360
384.436	366
384.662	377
384.887	361
385.112	372
385.337	375
385.562	372
385.787	372
386.013	372
386.238	387
386.463	386
386.688	390
386.913	366
387.138	357
387.363	373
387.588	361
387.813	346
388.038	326
388.263	381
388.488	349
388.713	369
388.938	379
389.163	376
389.387	375
389.612	370
389.837	377
390.062	362
390.287	365
390.512	361
390.736	358
390.961	358
391.186	363
391.411	363
391.636	361
391.86	387
392.085	375
392.31	378
392.534	359
392.759	359
392.984	362
393.208	360
393.433	365
393.658	348
393.882	371
394.107	361
394.331	377
394.556	373
394.78	363
395.005	373
395.229	354
395.454	388
395.678	373
395.903	371
396.127	397
396.352	394
396.576	386
396.801	382
397.025	368
397.249	366
397.474	369
397.698	373
397.922	391
398.147	422
398.371	418
398.595	387
398.82	396
399.044	410
399.268	404
399.492	434
399.717	436
399.941	475
400.165	521
400.389	473
400.613	468
400.837	426
401.062	438
401.286	405
401.51	405
401.734	419
401.958	411
402.182	399
402.406	400
402.63	429
402.854	437
403.078	403
403.302	415
403.526	409
403.75	418
403.974	413
404.198	433
404.422	417
404.645	415
404.869	444
405.093	462
405.317	499
405.541	529
405.765	497
405.988	451
406.212	457
406.436	492
406.66	490
406.883	477
407.107	485
407.331	534
407.555	575
407.778	545
408.002	503
408.226	474
408.449	473
408.673	482
408.896	511
409.12	527
409.344	489
409.567	454
409.791	457
410.014	411
410.238	406
410.461	409
410.685	422
410.908	461
411.132	467
411.355	492
411.578	486
411.802	458
412.025	426
412.249	436
412.472	433
412.695	481
412.919	477
413.142	413
413.365	400
413.589	421
413.812	400
414.035	385
414.258	395
414.482	394
414.705	388
414.928	395
415.151	384
415.374	390
415.597	402
415.821	400
416.044	400
416.267	394
416.49	417
416.713	387
416.936	391
417.159	402
417.382	409
417.605	405
417.828	407
418.051	453
418.274	414
418.497	410
418.72	398
418.943	388
419.166	408
419.389	425
419.611	405
419.834	417
420.057	423
420.28	419
420.503	415
420.726	405
420.948	452
421.171	505
421.394	510
421.617	459
421.839	420
422.062	443
422.285	448
422.507	491
422.73	573
422.953	538
423.175	467
423.398	430
423.621	459
423.843	439
424.066	450
424.288	467
424.511	498
424.733	547
424.956	609
425.178	563
425.401	571
425.623	585
425.846	515
426.068	476
426.291	469
426.513	478
426.735	484
426.958	521
427.18	603
427.402	697
427.625	764
427.847	683
428.069	577
428.292	508
428.514	490
428.736	451
428.958	458
429.181	419
429.403	422
429.625	452
429.847	454
430.069	535
430.292	542
430.514	429
430.736	443
430.958	423
431.18	422
431.402	392
431.624	388
431.846	398
432.068	388
432.29	402
432.512	394
432.734	397
432.956	423
433.178	407
433.4	428
433.622	398
433.844	391
434.066	374
434.287	386
434.509	384
434.731	421
434.953	425
435.175	436
435.397	463
435.618	466
435.84	527
436.062	600
436.284	667
436.505	536
436.727	503
436.949	443
437.17	451
437.392	412
437.614	435
437.835	475
438.057	570
438.278	669
438.5	653
438.721	709
438.943	670
439.165	554
439.386	500
439.608	486
439.829	486
440.05	531
440.272	555
440.493	517
440.715	477
440.936	450
441.158	428
441.379	414
441.6	439
441.822	483
442.043	500
442.264	571
442.486	635
442.707	542
442.928	484
443.149	477
443.371	506
443.592	552
443.813	614
444.034	668
444.255	551
444.476	496
444.698	485
444.919	456
445.14	575
445.361	521
445.582	541
445.803	594
446.024	675
446.245	680
446.466	628
446.687	533
446.908	471
447.129	442
447.35	445
447.571	421
447.792	433
448.013	451
448.234	460
448.455	514
448.675	601
448.896	713
449.117	593
449.338	572
449.559	694
449.779	737
450	604
450.221	497
450.442	462
450.662	447
450.883	450
451.104	451
451.324	450
451.545	441
451.766	408
451.986	393
452.207	393
452.428	403
452.648	402
452.869	397
453.089	398
453.31	399
453.53	396
453.751	413
453.971	401
454.192	404
454.412	413
454.633	405
454.853	382
455.073	393
455.294	410
455.514	490
455.734	477
455.955	398
456.175	362
456.395	355
456.616	374
456.836	357
457.056	365
457.276	360
457.497	350
457.717	367
457.937	365
458.157	381
458.377	376
458.598	412
458.818	471
459.038	525
459.258	558
459.478	461
459.698	404
459.918	414
460.138	409
460.358	392
460.578	391
460.798	406
461.018	371
461.238	389
461.458	389
461.678	385
461.898	389
462.118	403
462.338	410
462.558	386
462.777	388
462.997	425
463.217	428
463.437	409
463.657	417
463.876	400
464.096	410
464.316	420
464.536	418
464.755	422
464.975	414
465.195	477
465.414	559
465.634	483
465.854	422
466.073	414
466.293	398
466.512	398
466.732	393
466.951	382
467.171	371
467.391	379
467.61	410
467.829	419
468.049	386
468.268	381
468.488	376
468.707	386
468.927	373
469.146	385
469.365	383
469.585	378
469.804	388
470.023	391
470.243	404
470.462	409
470.681	419
470.901	422
471.12	390
471.339	395
471.558	395
471.777	400
471.997	381
472.216	406
472.435	452
472.654	419
472.873	401
473.092	380
473.311	385
473.53	403
473.749	414
473.968	449
474.187	547
474.406	575
474.625	465
474.844	419
475.063	403
475.282	405
475.501	396
475.72	406
475.939	443
476.158	408
476.377	430
476.596	406
476.814	414
477.033	431
477.252	416
477.471	434
477.69	416
477.908	423
478.127	430
478.346	437
478.564	430
478.783	428
479.002	441
479.22	433
479.439	460
479.658	490
479.876	476
480.095	477
480.313	519
480.532	480
480.751	473
480.969	490
481.188	577
481.406	577
481.624	510
481.843	478
482.061	497
482.28	457
482.498	459
482.717	460
482.935	468
483.153	462
483.372	469
483.59	463
483.808	463
484.027	458
484.245	456
484.463	476
484.681	471
484.9	465
485.118	478
485.336	479
485.554	483
485.772	499
485.99	479
486.209	484
486.427	481
486.645	485
486.863	514
487.081	520
487.299	493
487.517	515
487.735	492
487.953	502
488.171	490
488.389	501
488.607	513
488.825	503
489.043	491
489.261	508
489.479	505
489.696	510
489.914	499
490.132	509
490.35	521
490.568	563
490.786	523
491.003	532
491.221	517
491.439	552
491.657	569
491.874	563
492.092	555
492.31	570
492.527	553
492.745	550
492.963	567
493.18	563
493.398	612
493.615	575
493.833	597
494.05	606
494.268	605
494.485	586
494.703	603
494.92	575
495.138	588
495.355	581
495.573	583
495.79	607
496.008	614
496.225	605
496.442	590
496.66	606
496.877	610
497.094	593
497.312	594
497.529	589
497.746	597
497.963	619
498.181	646
498.398	643
498.615	636
498.832	642
499.049	627
499.267	647
499.484	679
499.701	704
499.918	676
500.135	699
500.352	719
500.569	729
500.786	727
501.003	729
501.22	737
501.437	725
501.654	709
501.871	692
502.088	674
502.305	684
502.522	659
502.739	651
502.956	634
503.172	637
503.389	627
503.606	630
503.823	642
504.04	614
504.256	582
504.473	589
504.69	607
504.907	598
505.123	602
505.34	584
505.557	571
505.773	582
505.99	573
506.207	583
506.423	582
506.64	581
506.856	559
507.073	564
507.289	553
507.506	572
507.722	569
507.939	609
508.155	589
508.372	572
508.588	550
508.805	555
509.021	562
509.238	603
509.454	584
509.67	580
509.887	589
510.103	572
510.319	585
510.536	673
510.752	1146
510.968	923
511.184	605
511.401	573
511.617	555
511.833	531
512.049	544
512.265	528
512.481	540
512.698	542
512.914	538
513.13	536
513.346	537
513.562	537
513.778	555
513.994	550
514.21	546
514.426	563
514.642	618
514.858	657
515.074	705
515.29	876
515.506	1254
515.721	1010
515.937	665
516.153	591
516.369	592
516.585	552
516.801	545
517.016	569
517.232	527
517.448	557
517.664	541
517.879	543
518.095	536
518.311	529
518.527	531
518.742	520
518.958	528
519.173	525
519.389	527
519.605	518
519.82	551
520.036	562
520.251	567
520.467	565
520.682	608
520.898	607
521.113	627
521.329	668
521.544	754
521.76	1035
521.975	1688
522.19	1592
522.406	881
522.621	641
522.836	568
523.052	554
523.267	542
523.482	531
523.698	498
523.913	500
524.128	505
524.343	480
524.559	465
524.774	457
524.989	455
525.204	470
525.419	469
525.634	451
525.849	461
526.064	441
526.28	445
526.495	440
526.71	449
526.925	405
527.14	417
527.355	439
527.57	422
527.785	426
527.999	454
528.214	437
528.429	417
528.644	433
528.859	439
529.074	424
529.289	461
529.503	533
529.718	509
529.933	463
530.148	446
530.363	443
530.577	416
530.792	428
531.007	427
531.221	416
531.436	407
531.651	417
531.865	413
532.08	415
532.295	422
532.509	405
532.724	400
532.938	385
533.153	400
533.367	406
533.582	407
533.796	392
534.011	399
534.225	403
534.44	396
534.654	404
534.868	405
535.083	369
535.297	413
535.511	394
535.726	413
535.94	401
536.154	401
536.369	404
536.583	418
536.797	380
537.011	375
537.225	382
537.44	386
537.654	374
537.868	373
538.082	383
538.296	377
538.51	382
538.724	385
538.938	387
539.153	390
539.367	416
539.581	397
539.795	403
540.009	391
540.222	374
540.436	383
540.65	391
540.864	391
541.078	397
541.292	396
541.506	373
541.72	383
541.934	384
542.147	380
542.361	381
542.575	376
542.789	377
543.002	389
543.216	374
543.43	399
543.644	386
543.857	394
544.071	385
544.285	364
544.498	379
544.712	385
544.925	378
545.139	383
545.352	360
545.566	377
545.779	350
545.993	365
546.206	361
546.42	375
546.633	353
546.847	376
547.06	352
547.274	362
547.487	363
547.7	364
547.914	362
548.127	352
548.34	366
548.554	367
548.767	344
548.98	360
549.193	364
549.407	336
549.62	346
549.833	362
550.046	351
550.259	350
550.473	344
550.686	340
550.899	360
551.112	339
551.325	345
551.538	364
551.751	356
551.964	350
552.177	353
552.39	348
552.603	352
552.816	362
553.029	339
553.242	365
553.455	377
553.667	373
553.88	360
554.093	369
554.306	364
554.519	381
554.732	367
554.944	330
555.157	349
555.37	354
555.583	319
555.795	353
556.008	340
556.221	339
556.433	328
556.646	347
556.859	345
557.071	348
557.284	320
557.496	341
557.709	327
557.921	334
558.134	327
558.346	323
558.559	339
558.771	330
558.984	317
559.196	323
559.409	313
559.621	323
559.833	318
560.046	329
560.258	295
560.47	322
560.683	320
560.895	327
561.107	327
561.32	323
561.532	313
561.744	339
561.956	320
562.168	323
562.381	329
562.593	311
562.805	313
563.017	334
563.229	328
563.441	318
563.653	318
563.865	326
564.077	318
564.289	320
564.501	331
564.713	317
564.925	323
565.137	338
565.349	344
565.561	335
565.773	320
565.985	360
566.197	362
566.408	340
566.62	361
566.832	343
567.044	363
567.255	370
567.467	369
567.679	349
567.891	369
568.102	370
568.314	363
568.526	354
568.737	324
568.949	337
569.161	332
569.372	315
569.584	309
569.795	326
570.007	331
570.218	371
570.43	337
570.641	328
570.853	298
571.064	290
571.276	294
571.487	302
571.698	315
571.91	296
572.121	273
572.333	299
572.544	282
572.755	283
572.966	297
573.178	291
573.389	274
573.6	285
573.811	283
574.023	298
574.234	279
574.445	284
574.656	275
574.867	293
575.078	272
575.289	272
575.501	278
575.712	272
575.923	284
576.134	276
576.345	265
576.556	268
576.767	270
576.978	301
577.188	275
577.399	277
577.61	268
577.821	273
578.032	283
578.243	315
578.454	537
578.665	374
578.875	279
579.086	273
579.297	265
579.508	260
579.718	271
579.929	266
580.14	258
580.35	269
580.561	263
580.772	276
580.982	266
581.193	265
581.403	257
581.614	260
581.825	258
582.035	250
582.246	238
582.456	258
582.667	261
582.877	234
583.087	229
583.298	254
583.508	237
583.719	258
583.929	251
584.139	261
584.35	231
584.56	257
584.77	245
584.981	254
585.191	243
585.401	247
585.611	253
585.821	273
586.032	242
586.242	234
586.452	244
586.662	261
586.872	248
587.082	247
587.292	237
587.502	254
587.713	238
587.923	236
588.133	224
588.343	247
588.553	251
588.762	243
588.972	263
589.182	252
589.392	250
589.602	241
589.812	251
590.022	244
590.232	244
590.441	246
590.651	244
590.861	250
591.071	246
591.281	258
591.49	247
591.7	236
591.91	239
592.119	246
592.329	233
592.539	247
592.748	243
592.958	238
593.167	227
593.377	245
593.587	236
593.796	255
594.006	246
594.215	266
594.424	250
594.634	250
594.843	228
595.053	239
595.262	249
595.472	229
595.681	220
595.89	242
596.1	234
596.309	238
596.518	225
596.727	230
596.937	214
597.146	206
597.355	224
597.564	231
597.774	231
597.983	210
598.192	213
598.401	215
598.61	220
598.819	229
599.028	234
599.237	236
599.446	220
599.655	214
599.864	226
600.073	222
600.282	219
600.491	217
600.7	229
600.909	202
601.118	212
601.327	218
601.536	195
601.745	193
601.953	217
602.162	228
602.371	212
602.58	211
602.789	215
602.997	229
603.206	203
603.415	203
603.623	231
603.832	220
604.041	214
604.249	227
604.458	206
604.666	210
604.875	200
605.084	213
605.292	210
605.501	206
605.709	206
605.918	204
606.126	216
606.334	221
606.543	212
606.751	203
606.96	216
607.168	215
607.376	201
607.585	201
607.793	217
608.001	206
608.21	214
608.418	199
608.626	184
608.834	201
609.043	206
609.251	203
609.459	204
609.667	208
609.875	213
610.083	198
610.291	198
610.499	194
610.707	210
610.916	204
611.124	208
611.332	214
611.54	215
611.748	202
611.955	207
612.163	205
612.371	193
612.579	193
612.787	190
612.995	196
613.203	197
613.411	215
613.618	201
613.826	197
614.034	200
614.242	200
614.449	187
614.657	205
614.865	218
615.072	198
615.28	183
615.488	189
615.695	183
615.903	186
616.111	193
616.318	204
616.526	203
616.733	195
616.941	197
617.148	182
617.356	194
617.563	189
617.771	200
617.978	192
618.185	189
618.393	210
618.6	198
618.807	188
619.015	187
619.222	180
619.429	194
619.637	205
619.844	189
620.051	199
620.258	191
620.466	183
620.673	188
620.88	182
621.087	183
621.294	185
621.501	192
621.708	196
621.915	186
622.122	187
622.329	191
622.536	171
622.743	187
622.95	190
623.157	193
623.364	191
623.571	182
623.778	187
623.985	181
624.192	165
624.399	190
624.606	189
624.812	182
625.019	180
625.226	172
625.433	174
625.639	172
625.846	171
626.053	173
626.259	182
626.466	192
626.673	175
626.879	163
627.086	178
627.293	179
627.499	184
627.706	185
627.912	179
628.119	177
628.325	190
628.532	178
628.738	184
628.945	170
629.151	181
629.357	187
629.564	164
629.77	183
629.976	165
630.183	164
630.389	177
630.595	165
630.802	188
631.008	171
631.214	161
631.42	163
631.627	186
631.833	179
632.039	167
632.245	151
632.451	171
632.657	163
632.863	164
633.069	158
633.275	175
633.481	159
633.688	145
633.893	170
634.099	159
634.305	161
634.511	159
634.717	156
634.923	156
635.129	165
635.335	153
635.541	153
635.747	149
635.952	162
636.158	155
636.364	162
636.57	161
636.775	161
636.981	162
637.187	178
637.392	163
637.598	149
637.804	154
638.009	163
638.215	155
638.421	157
638.626	153
638.832	160
639.037	159
639.243	154
639.448	147
639.654	158
639.859	161
640.065	152
640.27	152
640.475	158
640.681	149
640.886	154
641.091	147
641.297	158
641.502	151
641.707	147
641.913	153
642.118	141
642.323	155
642.528	162
642.733	160
642.939	152
643.144	143
643.349	149
643.554	147
643.759	148
643.964	128
644.169	135
644.374	145
644.579	129
644.784	148
644.989	160
645.194	147
645.399	147
645.604	143
645.809	159
646.014	141
646.219	143
646.423	139
646.628	141
646.833	143
647.038	142
647.243	138
647.447	142
647.652	145
647.857	142
648.062	140
648.266	139
648.471	152
648.676	149
648.88	150
649.085	141
649.289	146
649.494	153
649.698	151
649.903	173
650.107	164
650.312	155
650.516	149
650.721	147
650.925	133
651.13	149
651.334	139
651.539	143
651.743	145
651.947	140
652.152	125
652.356	148
652.56	116
652.764	118
652.969	137
653.173	136
653.377	129
653.581	127
653.785	119
653.99	126
654.194	128
654.398	120
654.602	137
654.806	133
655.01	137
655.214	115
655.418	121
655.622	123
655.826	139
656.03	129
656.234	123
656.438	122
656.642	127
656.846	128
657.049	125
657.253	127
657.457	118
657.661	112
657.865	101
658.068	112
658.272	100
658.476	104
658.68	102
658.883	89
659.087	94
659.291	100
659.494	93
659.698	94
659.901	92
660.105	102
660.309	98
660.512	87
660.716	93
660.919	80
661.123	94
661.326	106
661.53	76
661.733	92
661.936	87
662.14	88
662.343	100
662.546	98
662.75	91
662.953	93
663.156	87
663.36	90
663.563	100
663.766	73
663.969	83
664.173	75
664.376	68
664.579	82
664.782	98
664.985	78
665.188	83
665.391	87
665.594	88
665.797	84
666	97
666.203	76
666.406	91
666.609	72
666.812	71
667.015	92
667.218	94
667.421	85
667.624	89
667.827	70
668.03	85
668.232	87
668.435	67
668.638	66
668.841	71
669.043	95
669.246	92
669.449	70
669.651	77
669.854	92
670.057	88
670.259	82
670.462	83
670.665	76
670.867	75
671.07	94
671.272	85
671.475	96
671.677	89
671.88	99
672.082	73
672.284	77
672.487	91
672.689	78
672.892	69
