Data from 1981.PennyLincolnUp.Lamp.En5.5.200Scan.071819.P1_HRD10591_16-42-20-960.txt Node
Date: Thu Jul 18 16:42:20 EDT 2019
User: cochatt
Spectrometer: HR+D1059
Trigger mode: 1
Integration Time (sec): 1.000000E-1
Scans to average: 1
Electric dark correction enabled: true
Nonlinearity correction enabled: false
Boxcar width: 0
XAxis mode: Wavelengths
Number of Pixels in Spectrum: 2048
>>>>>Begin Spectral Data<<<<<
223.165	-21
223.4	-21
223.635	-21
223.869	-15
224.104	-20
224.338	-15
224.573	-19
224.808	-11
225.042	-8
225.277	-6
225.511	1
225.746	14
225.98	9
226.215	10
226.449	11
226.683	15
226.918	22
227.152	33
227.387	23
227.621	38
227.856	44
228.09	38
228.324	53
228.559	63
228.793	68
229.027	90
229.262	109
229.496	121
229.73	123
229.964	164
230.199	119
230.433	115
230.667	107
230.901	109
231.136	123
231.37	121
231.604	109
231.838	103
232.072	93
232.306	95
232.541	115
232.775	113
233.009	120
233.243	111
233.477	100
233.711	102
233.945	105
234.179	109
234.413	129
234.647	112
234.881	119
235.115	103
235.349	124
235.583	110
235.817	123
236.051	133
236.285	136
236.519	142
236.753	118
236.987	163
237.221	191
237.455	230
237.689	194
237.922	143
238.156	138
238.39	127
238.624	124
238.858	123
239.091	126
239.325	126
239.559	136
239.793	128
240.027	127
240.26	145
240.494	146
240.728	139
240.961	160
241.195	139
241.429	130
241.662	132
241.896	125
242.13	125
242.363	137
242.597	134
242.83	134
243.064	129
243.298	146
243.531	141
243.765	144
243.998	132
244.232	141
244.465	154
244.699	133
244.932	149
245.166	140
245.399	137
245.633	150
245.866	150
246.099	137
246.333	154
246.566	137
246.8	153
247.033	155
247.266	162
247.5	161
247.733	173
247.966	175
248.2	155
248.433	161
248.666	175
248.899	202
249.133	219
249.366	228
249.599	207
249.832	201
250.066	189
250.299	182
250.532	191
250.765	213
250.998	233
251.231	241
251.465	223
251.698	221
251.931	202
252.164	221
252.397	207
252.63	201
252.863	214
253.096	218
253.329	249
253.562	241
253.795	229
254.028	245
254.261	245
254.494	247
254.727	261
254.96	302
255.193	290
255.426	264
255.659	249
255.892	244
256.124	253
256.357	254
256.59	234
256.823	220
257.056	217
257.289	229
257.521	221
257.754	223
257.987	228
258.22	219
258.452	220
258.685	228
258.918	206
259.151	222
259.383	225
259.616	225
259.849	229
260.081	234
260.314	266
260.547	271
260.779	264
261.012	232
261.244	237
261.477	249
261.71	238
261.942	241
262.175	241
262.407	235
262.64	227
262.872	218
263.105	217
263.337	243
263.57	224
263.802	235
264.035	223
264.267	217
264.499	210
264.732	221
264.964	229
265.197	224
265.429	218
265.661	206
265.894	225
266.126	215
266.358	227
266.591	230
266.823	250
267.055	234
267.287	238
267.52	226
267.752	252
267.984	249
268.216	238
268.448	236
268.681	249
268.913	267
269.145	277
269.377	291
269.609	290
269.841	301
270.073	291
270.306	314
270.538	339
270.77	333
271.002	323
271.234	317
271.466	321
271.698	324
271.93	335
272.162	354
272.394	323
272.626	314
272.858	311
273.09	283
273.322	268
273.553	281
273.785	282
274.017	277
274.249	261
274.481	300
274.713	275
274.945	284
275.176	266
275.408	267
275.64	280
275.872	284
276.104	275
276.335	293
276.567	295
276.799	296
277.031	326
277.262	334
277.494	314
277.726	331
277.957	309
278.189	290
278.421	291
278.652	275
278.884	271
279.115	296
279.347	289
279.579	286
279.81	268
280.042	277
280.273	289
280.505	272
280.736	278
280.968	276
281.199	281
281.431	275
281.662	285
281.894	291
282.125	271
282.356	304
282.588	302
282.819	311
283.051	299
283.282	290
283.513	268
283.745	287
283.976	299
284.207	286
284.439	296
284.67	282
284.901	279
285.132	262
285.364	298
285.595	266
285.826	279
286.057	287
286.288	283
286.52	265
286.751	279
286.982	284
287.213	294
287.444	283
287.675	305
287.906	285
288.138	305
288.369	296
288.6	305
288.831	311
289.062	292
289.293	298
289.524	283
289.755	296
289.986	299
290.217	286
290.448	308
290.679	291
290.91	294
291.141	294
291.371	283
291.602	305
291.833	292
292.064	267
292.295	266
292.526	292
292.757	282
292.987	296
293.218	281
293.449	283
293.68	286
293.91	269
294.141	285
294.372	290
294.603	291
294.833	300
295.064	293
295.295	315
295.525	318
295.756	294
295.987	311
296.217	336
296.448	337
296.679	299
296.909	285
297.14	301
297.37	312
297.601	278
297.831	302
298.062	302
298.292	308
298.523	301
298.753	313
298.984	316
299.214	322
299.445	302
299.675	315
299.905	321
300.136	316
300.366	319
300.597	341
300.827	322
301.057	320
301.288	346
301.518	327
301.748	314
301.979	317
302.209	348
302.439	310
302.669	332
302.9	319
303.13	322
303.36	331
303.59	331
303.82	349
304.051	347
304.281	328
304.511	325
304.741	329
304.971	313
305.201	313
305.431	331
305.661	341
305.891	314
306.121	326
306.352	335
306.582	346
306.812	332
307.042	320
307.272	336
307.502	315
307.731	337
307.961	331
308.191	321
308.421	345
308.651	344
308.881	354
309.111	360
309.341	348
309.571	373
309.8	357
310.03	385
310.26	382
310.49	393
310.72	399
310.949	425
311.179	411
311.409	397
311.639	394
311.868	388
312.098	379
312.328	391
312.557	433
312.787	442
313.017	441
313.246	413
313.476	378
313.706	373
313.935	389
314.165	405
314.394	404
314.624	394
314.853	399
315.083	402
315.312	386
315.542	391
315.771	368
316.001	396
316.23	382
316.46	389
316.689	387
316.919	400
317.148	410
317.377	385
317.607	400
317.836	371
318.065	391
318.295	368
318.524	358
318.753	381
318.983	401
319.212	404
319.441	398
319.67	378
319.9	393
320.129	387
320.358	417
320.587	376
320.816	394
321.046	417
321.275	411
321.504	434
321.733	406
321.962	459
322.191	443
322.42	447
322.649	491
322.878	467
323.108	514
323.337	525
323.566	555
323.795	595
324.024	650
324.253	808
324.482	1199
324.71	1844
324.939	2521
325.168	2145
325.397	1129
325.626	766
325.855	630
326.084	568
326.313	571
326.542	563
326.77	620
326.999	737
327.228	1041
327.457	1594
327.686	1841
327.914	1214
328.143	827
328.372	697
328.6	636
328.829	637
329.058	641
329.287	643
329.515	600
329.744	562
329.972	572
330.201	599
330.43	632
330.658	649
330.887	644
331.115	652
331.344	542
331.572	518
331.801	519
332.03	530
332.258	477
332.486	449
332.715	455
332.943	439
333.172	477
333.4	471
333.629	466
333.857	483
334.085	492
334.314	503
334.542	535
334.771	530
334.999	501
335.227	479
335.455	448
335.684	435
335.912	450
336.14	435
336.369	429
336.597	449
336.825	456
337.053	430
337.281	442
337.51	431
337.738	440
337.966	441
338.194	443
338.422	429
338.65	430
338.878	426
339.106	433
339.334	430
339.562	421
339.79	430
340.018	444
340.246	417
340.474	446
340.702	436
340.93	404
341.158	411
341.386	420
341.614	437
341.842	426
342.07	425
342.298	430
342.526	417
342.754	408
342.981	408
343.209	404
343.437	410
343.665	410
343.893	406
344.12	392
344.348	403
344.576	424
344.804	437
345.031	442
345.259	434
345.487	423
345.714	434
345.942	425
346.17	393
346.397	416
346.625	409
346.853	442
347.08	396
347.308	417
347.535	406
347.763	434
347.99	411
348.218	420
348.445	436
348.673	415
348.9	428
349.128	412
349.355	396
349.583	403
349.81	383
350.037	401
350.265	415
350.492	389
350.72	408
350.947	385
351.174	409
351.402	412
351.629	417
351.856	410
352.083	437
352.311	431
352.538	415
352.765	421
352.992	445
353.22	399
353.447	419
353.674	390
353.901	380
354.128	396
354.355	395
354.583	375
354.81	384
355.037	375
355.264	386
355.491	369
355.718	356
355.945	358
356.172	358
356.399	352
356.626	359
356.853	365
357.08	350
357.307	370
357.534	369
357.761	365
357.988	367
358.215	369
358.441	369
358.668	362
358.895	381
359.122	373
359.349	383
359.576	404
359.802	437
360.029	475
360.256	465
360.483	443
360.709	411
360.936	397
361.163	396
361.39	426
361.616	433
361.843	415
362.07	401
362.296	404
362.523	386
362.749	411
362.976	394
363.203	386
363.429	383
363.656	381
363.882	380
364.109	379
364.335	375
364.562	382
364.788	377
365.015	379
365.241	373
365.468	383
365.694	387
365.92	385
366.147	376
366.373	371
366.599	376
366.826	377
367.052	365
367.278	363
367.505	386
367.731	375
367.957	368
368.184	370
368.41	386
368.636	392
368.862	383
369.089	366
369.315	360
369.541	381
369.767	372
369.993	382
370.219	364
370.445	360
370.672	379
370.898	363
371.124	365
371.35	347
371.576	366
371.802	349
372.028	371
372.254	364
372.48	379
372.706	357
372.932	363
373.158	361
373.384	347
373.61	334
373.835	339
374.061	375
374.287	369
374.513	352
374.739	369
374.965	350
375.191	362
375.416	384
375.642	358
375.868	353
376.094	379
376.319	373
376.545	358
376.771	350
376.997	352
377.222	358
377.448	357
377.674	362
377.899	349
378.125	353
378.35	332
378.576	339
378.802	324
379.027	335
379.253	353
379.478	345
379.704	343
379.929	346
380.155	346
380.38	356
380.606	377
380.831	337
381.057	353
381.282	365
381.507	356
381.733	359
381.958	358
382.184	363
382.409	341
382.634	370
382.86	353
383.085	373
383.31	358
383.535	359
383.761	364
383.986	362
384.211	353
384.436	346
384.662	352
384.887	362
385.112	374
385.337	373
385.562	362
385.787	374
386.013	377
386.238	369
386.463	371
386.688	367
386.913	375
387.138	347
387.363	369
387.588	362
387.813	375
388.038	376
388.263	370
388.488	363
388.713	387
388.938	358
389.163	372
389.387	373
389.612	349
389.837	361
390.062	350
390.287	360
390.512	389
390.736	353
390.961	370
391.186	353
391.411	367
391.636	389
391.86	379
392.085	359
392.31	374
392.534	367
392.759	361
392.984	360
393.208	366
393.433	366
393.658	369
393.882	365
394.107	366
394.331	369
394.556	356
394.78	330
395.005	359
395.229	345
395.454	360
395.678	347
395.903	392
396.127	403
396.352	402
396.576	382
396.801	390
397.025	369
397.249	375
397.474	374
397.698	396
397.922	403
398.147	411
398.371	433
398.595	425
398.82	427
399.044	413
399.268	407
399.492	433
399.717	447
399.941	466
400.165	487
400.389	491
400.613	452
400.837	412
401.062	423
401.286	412
401.51	433
401.734	400
401.958	395
402.182	404
402.406	428
402.63	445
402.854	414
403.078	408
403.302	423
403.526	427
403.75	419
403.974	408
404.198	416
404.422	425
404.645	434
404.869	417
405.093	464
405.317	501
405.541	524
405.765	460
405.988	460
406.212	474
406.436	453
406.66	494
406.883	449
407.107	466
407.331	507
407.555	563
407.778	574
408.002	501
408.226	482
408.449	482
408.673	477
408.896	515
409.12	503
409.344	498
409.567	457
409.791	439
410.014	439
410.238	416
410.461	427
410.685	431
410.908	441
411.132	490
411.355	488
411.578	460
411.802	435
412.025	421
412.249	433
412.472	442
412.695	510
412.919	463
413.142	429
413.365	419
413.589	427
413.812	421
414.035	397
414.258	385
414.482	409
414.705	397
414.928	391
415.151	400
415.374	394
415.597	402
415.821	397
416.044	413
416.267	395
416.49	386
416.713	381
416.936	398
417.159	399
417.382	389
417.605	412
417.828	427
418.051	432
418.274	393
418.497	407
418.72	388
418.943	402
419.166	420
419.389	438
419.611	417
419.834	418
420.057	433
420.28	412
420.503	435
420.726	420
420.948	437
421.171	483
421.394	511
421.617	448
421.839	420
422.062	430
422.285	447
422.507	497
422.73	565
422.953	529
423.175	474
423.398	444
423.621	450
423.843	461
424.066	463
424.288	458
424.511	469
424.733	535
424.956	600
425.178	582
425.401	584
425.623	587
425.846	518
426.068	475
426.291	473
426.513	487
426.735	497
426.958	531
427.18	597
427.402	693
427.625	787
427.847	691
428.069	609
428.292	539
428.514	462
428.736	452
428.958	453
429.181	434
429.403	426
429.625	440
429.847	465
430.069	539
430.292	539
430.514	467
430.736	441
430.958	417
431.18	404
431.402	392
431.624	387
431.846	400
432.068	395
432.29	422
432.512	410
432.734	426
432.956	387
433.178	412
433.4	429
433.622	405
433.844	418
434.066	394
434.287	402
434.509	401
434.731	418
434.953	408
435.175	436
435.397	450
435.618	457
435.84	517
436.062	585
436.284	637
436.505	551
436.727	487
436.949	474
437.17	460
437.392	433
437.614	457
437.835	493
438.057	577
438.278	663
438.5	655
438.721	718
438.943	671
439.165	545
439.386	502
439.608	509
439.829	509
440.05	534
440.272	561
440.493	520
440.715	469
440.936	433
441.158	445
441.379	446
441.6	434
441.822	455
442.043	487
442.264	610
442.486	616
442.707	526
442.928	483
443.149	458
443.371	494
443.592	539
443.813	613
444.034	678
444.255	548
444.476	502
444.698	460
444.919	463
445.14	572
445.361	551
445.582	517
445.803	585
446.024	680
446.245	671
446.466	643
446.687	517
446.908	484
447.129	459
447.35	441
447.571	431
447.792	433
448.013	437
448.234	462
448.455	522
448.675	610
448.896	693
449.117	613
449.338	581
449.559	661
449.779	723
450	583
450.221	471
450.442	437
450.662	446
450.883	426
451.104	441
451.324	437
451.545	431
451.766	394
451.986	390
452.207	394
452.428	390
452.648	395
452.869	378
453.089	404
453.31	395
453.53	410
453.751	388
453.971	381
454.192	416
454.412	422
454.633	374
454.853	405
455.073	395
455.294	411
455.514	499
455.734	463
455.955	397
456.175	388
456.395	366
456.616	363
456.836	362
457.056	353
457.276	354
457.497	355
457.717	373
457.937	367
458.157	362
458.377	387
458.598	411
458.818	465
459.038	556
459.258	551
459.478	451
459.698	407
459.918	379
460.138	411
460.358	375
460.578	377
460.798	381
461.018	407
461.238	379
461.458	400
461.678	380
461.898	387
462.118	383
462.338	391
462.558	399
462.777	393
462.997	413
463.217	423
463.437	422
463.657	403
463.876	408
464.096	399
464.316	406
464.536	428
464.755	428
464.975	441
465.195	506
465.414	569
465.634	486
465.854	437
466.073	419
466.293	400
466.512	397
466.732	396
466.951	395
467.171	381
467.391	400
467.61	389
467.829	395
468.049	404
468.268	379
468.488	405
468.707	381
468.927	382
469.146	383
469.365	378
469.585	377
469.804	385
470.023	394
470.243	391
470.462	411
470.681	411
470.901	383
471.12	381
471.339	398
471.558	402
471.777	397
471.997	395
472.216	412
472.435	424
472.654	422
472.873	409
473.092	399
473.311	407
473.53	383
473.749	394
473.968	449
474.187	556
474.406	589
474.625	477
474.844	422
475.063	395
475.282	383
475.501	386
475.72	399
475.939	417
476.158	403
476.377	409
476.596	412
476.814	397
477.033	418
477.252	413
477.471	412
477.69	419
477.908	429
478.127	420
478.346	403
478.564	422
478.783	436
479.002	447
479.22	441
479.439	437
479.658	469
479.876	490
480.095	478
480.313	479
480.532	471
480.751	485
480.969	483
481.188	535
481.406	563
481.624	511
481.843	482
482.061	485
482.28	456
482.498	465
482.717	463
482.935	467
483.153	457
483.372	455
483.59	467
483.808	463
484.027	462
484.245	467
484.463	475
484.681	467
484.9	482
485.118	492
485.336	481
485.554	454
485.772	485
485.99	472
486.209	499
486.427	489
486.645	501
486.863	517
487.081	519
487.299	515
487.517	486
487.735	484
487.953	481
488.171	482
488.389	509
488.607	516
488.825	525
489.043	498
489.261	517
489.479	510
489.696	501
489.914	491
490.132	517
490.35	513
490.568	525
490.786	521
491.003	551
491.221	547
491.439	557
491.657	562
491.874	556
492.092	545
492.31	573
492.527	563
492.745	571
492.963	583
493.18	573
493.398	600
493.615	595
493.833	588
494.05	578
494.268	576
494.485	590
494.703	568
494.92	583
495.138	591
495.355	594
495.573	577
495.79	595
496.008	612
496.225	589
496.442	588
496.66	611
496.877	602
497.094	594
497.312	599
497.529	607
497.746	620
497.963	616
498.181	603
498.398	633
498.615	654
498.832	630
499.049	637
499.267	658
499.484	645
499.701	680
499.918	693
500.135	690
500.352	693
500.569	708
500.786	718
501.003	715
501.22	720
501.437	740
501.654	704
501.871	737
502.088	669
502.305	671
502.522	653
502.739	629
502.956	608
503.172	659
503.389	631
503.606	620
503.823	609
504.04	610
504.256	600
504.473	592
504.69	594
504.907	600
505.123	583
505.34	581
505.557	580
505.773	570
505.99	585
506.207	571
506.423	572
506.64	564
506.856	573
507.073	572
507.289	583
507.506	567
507.722	582
507.939	590
508.155	561
508.372	570
508.588	546
508.805	549
509.021	576
509.238	573
509.454	604
509.67	573
509.887	567
510.103	552
510.319	577
510.536	661
510.752	1175
510.968	909
511.184	586
511.401	566
511.617	553
511.833	537
512.049	562
512.265	517
512.481	518
512.698	535
512.914	524
513.13	540
513.346	526
513.562	516
513.778	552
513.994	559
514.21	563
514.426	603
514.642	618
514.858	665
515.074	710
515.29	838
515.506	1279
515.721	1019
515.937	664
516.153	621
516.369	599
516.585	589
516.801	543
517.016	549
517.232	553
517.448	560
517.664	540
517.879	539
518.095	559
518.311	527
518.527	524
518.742	521
518.958	519
519.173	520
519.389	522
519.605	546
519.82	556
520.036	562
520.251	571
520.467	612
520.682	586
520.898	601
521.113	639
521.329	670
521.544	811
521.76	1045
521.975	1721
522.19	1607
522.406	874
522.621	675
522.836	588
523.052	553
523.267	552
523.482	513
523.698	501
523.913	533
524.128	491
524.343	492
524.559	461
524.774	466
524.989	454
525.204	481
525.419	477
525.634	461
525.849	458
526.064	447
526.28	421
526.495	425
526.71	433
526.925	438
527.14	421
527.355	434
527.57	419
527.785	426
527.999	426
528.214	440
528.429	446
528.644	435
528.859	433
529.074	430
529.289	463
529.503	545
529.718	494
529.933	481
530.148	435
530.363	454
530.577	418
530.792	408
531.007	418
531.221	425
531.436	409
531.651	401
531.865	411
532.08	398
532.295	401
532.509	381
532.724	405
532.938	378
533.153	391
533.367	385
533.582	389
533.796	398
534.011	403
534.225	397
534.44	367
534.654	399
534.868	391
535.083	392
535.297	396
535.511	393
535.726	420
535.94	409
536.154	409
536.369	381
536.583	394
536.797	397
537.011	385
537.225	373
537.44	383
537.654	377
537.868	384
538.082	379
538.296	380
538.51	381
538.724	395
538.938	359
539.153	392
539.367	410
539.581	409
539.795	409
540.009	378
540.222	370
540.436	387
540.65	389
540.864	383
541.078	398
541.292	396
541.506	409
541.72	365
541.934	377
542.147	381
542.361	342
542.575	350
542.789	385
543.002	373
543.216	391
543.43	391
543.644	394
543.857	412
544.071	354
544.285	395
544.498	367
544.712	375
544.925	369
545.139	365
545.352	367
545.566	366
545.779	363
545.993	376
546.206	365
546.42	367
546.633	366
546.847	349
547.06	356
547.274	347
547.487	365
547.7	364
547.914	334
548.127	361
548.34	350
548.554	356
548.767	360
548.98	371
549.193	366
549.407	385
549.62	354
549.833	360
550.046	365
550.259	346
550.473	333
550.686	340
550.899	348
551.112	362
551.325	340
551.538	357
551.751	330
551.964	360
552.177	362
552.39	343
552.603	370
552.816	343
553.029	342
553.242	363
553.455	345
553.667	371
553.88	382
554.093	378
554.306	358
554.519	348
554.732	337
554.944	340
555.157	338
555.37	324
555.583	341
555.795	330
556.008	354
556.221	340
556.433	316
556.646	341
556.859	327
557.071	315
557.284	333
557.496	315
557.709	315
557.921	343
558.134	339
558.346	324
558.559	357
558.771	333
558.984	334
559.196	314
559.409	329
559.621	327
559.833	326
560.046	313
560.258	322
560.47	313
560.683	331
560.895	330
561.107	311
561.32	322
561.532	327
561.744	301
561.956	319
562.168	322
562.381	338
562.593	321
562.805	331
563.017	309
563.229	313
563.441	317
563.653	335
563.865	315
564.077	334
564.289	334
564.501	335
564.713	323
564.925	328
565.137	348
565.349	350
565.561	330
565.773	325
565.985	342
566.197	356
566.408	346
566.62	347
566.832	354
567.044	329
567.255	348
567.467	364
567.679	373
567.891	364
568.102	359
568.314	373
568.526	348
568.737	341
568.949	335
569.161	317
569.372	318
569.584	305
569.795	317
570.007	320
570.218	367
570.43	364
570.641	307
570.853	310
571.064	300
571.276	300
571.487	298
571.698	292
571.91	291
572.121	296
572.333	293
572.544	287
572.755	293
572.966	283
573.178	278
573.389	301
573.6	271
573.811	285
574.023	289
574.234	268
574.445	262
574.656	281
574.867	268
575.078	268
575.289	271
575.501	275
575.712	270
575.923	287
576.134	288
576.345	261
576.556	277
576.767	273
576.978	264
577.188	271
577.399	261
577.61	280
577.821	263
578.032	267
578.243	317
578.454	547
578.665	385
578.875	292
579.086	277
579.297	276
579.508	262
579.718	272
579.929	253
580.14	250
580.35	237
580.561	270
580.772	241
580.982	245
581.193	248
581.403	270
581.614	261
581.825	255
582.035	246
582.246	263
582.456	251
582.667	257
582.877	250
583.087	249
583.298	254
583.508	231
583.719	241
583.929	265
584.139	261
584.35	241
584.56	258
584.77	236
584.981	257
585.191	245
585.401	245
585.611	261
585.821	246
586.032	244
586.242	258
586.452	249
586.662	247
586.872	267
587.082	255
587.292	257
587.502	246
587.713	238
587.923	227
588.133	261
588.343	257
588.553	250
588.762	245
588.972	241
589.182	266
589.392	243
589.602	244
589.812	237
590.022	257
590.232	246
590.441	259
590.651	243
590.861	237
591.071	248
591.281	246
591.49	231
591.7	240
591.91	249
592.119	241
592.329	257
592.539	248
592.748	245
592.958	255
593.167	251
593.377	257
593.587	263
593.796	263
594.006	250
594.215	249
594.424	243
594.634	238
594.843	245
595.053	249
595.262	225
595.472	231
595.681	231
595.89	243
596.1	247
596.309	236
596.518	235
596.727	230
596.937	230
597.146	216
597.355	218
597.564	223
597.774	240
597.983	220
598.192	224
598.401	213
598.61	233
598.819	232
599.028	231
599.237	221
599.446	213
599.655	195
599.864	215
600.073	219
600.282	232
600.491	197
600.7	222
600.909	225
601.118	205
601.327	221
601.536	203
601.745	214
601.953	230
602.162	220
602.371	212
602.58	211
602.789	217
602.997	206
603.206	213
603.415	210
603.623	221
603.832	219
604.041	227
604.249	207
604.458	199
604.666	206
604.875	208
605.084	214
605.292	214
605.501	193
605.709	205
605.918	216
606.126	231
606.334	212
606.543	204
606.751	193
606.96	210
607.168	230
607.376	202
607.585	197
607.793	213
608.001	205
608.21	203
608.418	203
608.626	192
608.834	198
609.043	211
609.251	202
609.459	207
609.667	207
609.875	197
610.083	214
610.291	197
610.499	197
610.707	189
610.916	195
611.124	214
611.332	218
611.54	200
611.748	213
611.955	204
612.163	206
612.371	186
612.579	217
612.787	203
612.995	209
613.203	211
613.411	204
613.618	196
613.826	198
614.034	196
614.242	203
614.449	181
614.657	212
614.865	184
615.072	182
615.28	205
615.488	212
615.695	206
615.903	216
616.111	210
616.318	206
616.526	189
616.733	206
616.941	199
617.148	206
617.356	207
617.563	203
617.771	186
617.978	188
618.185	190
618.393	198
618.6	207
618.807	191
619.015	209
619.222	205
619.429	182
619.637	203
619.844	184
620.051	192
620.258	204
620.466	184
620.673	199
620.88	184
621.087	181
621.294	187
621.501	189
621.708	191
621.915	174
622.122	177
622.329	174
622.536	181
622.743	187
622.95	197
623.157	187
623.364	194
623.571	186
623.778	194
623.985	189
624.192	179
624.399	198
624.606	182
624.812	185
625.019	183
625.226	187
625.433	188
625.639	177
625.846	173
626.053	177
626.259	177
626.466	174
626.673	174
626.879	182
627.086	183
627.293	198
627.499	183
627.706	180
627.912	190
628.119	180
628.325	174
628.532	169
628.738	183
628.945	181
629.151	167
629.357	165
629.564	166
629.77	172
629.976	169
630.183	155
630.389	173
630.595	154
630.802	178
631.008	170
631.214	167
631.42	159
631.627	169
631.833	165
632.039	166
632.245	165
632.451	164
632.657	171
632.863	163
633.069	146
633.275	159
633.481	162
633.688	159
633.893	164
634.099	166
634.305	163
634.511	155
634.717	143
634.923	150
635.129	163
635.335	152
635.541	155
635.747	164
635.952	145
636.158	169
636.364	175
636.57	149
636.775	157
636.981	154
637.187	147
637.392	179
637.598	162
637.804	155
638.009	154
638.215	162
638.421	159
638.626	148
638.832	135
639.037	155
639.243	140
639.448	148
639.654	136
639.859	153
640.065	156
640.27	157
640.475	165
640.681	151
640.886	153
641.091	159
641.297	162
641.502	181
641.707	149
641.913	162
642.118	150
642.323	145
642.528	151
642.733	139
642.939	149
643.144	153
643.349	148
643.554	138
643.759	157
643.964	157
644.169	140
644.374	155
644.579	146
644.784	135
644.989	145
645.194	154
645.399	154
645.604	141
645.809	166
646.014	142
646.219	156
646.423	151
646.628	158
646.833	149
647.038	155
647.243	143
647.447	149
647.652	157
647.857	142
648.062	141
648.266	142
648.471	158
648.676	155
648.88	156
649.085	161
649.289	154
649.494	148
649.698	183
649.903	167
650.107	175
650.312	162
650.516	143
650.721	149
650.925	138
651.13	133
651.334	150
651.539	138
651.743	131
651.947	151
652.152	135
652.356	137
652.56	124
652.764	130
652.969	124
653.173	125
653.377	124
653.581	125
653.785	122
653.99	123
654.194	124
654.398	119
654.602	139
654.806	119
655.01	141
655.214	131
655.418	141
655.622	121
655.826	126
656.03	121
656.234	128
656.438	121
656.642	121
656.846	130
657.049	123
657.253	121
657.457	117
657.661	110
657.865	109
658.068	103
658.272	109
658.476	103
658.68	95
658.883	102
659.087	93
659.291	93
659.494	97
659.698	89
659.901	105
660.105	95
660.309	108
660.512	107
660.716	88
660.919	91
661.123	101
661.326	85
661.53	90
661.733	82
661.936	78
662.14	79
662.343	78
662.546	88
662.75	98
662.953	90
663.156	85
663.36	72
663.563	84
663.766	92
663.969	75
664.173	78
664.376	67
664.579	95
664.782	77
664.985	92
665.188	86
665.391	79
665.594	86
665.797	82
666	79
666.203	83
666.406	106
666.609	94
666.812	88
667.015	69
667.218	91
667.421	84
667.624	70
667.827	67
668.03	70
668.232	87
668.435	78
668.638	81
668.841	88
669.043	80
669.246	93
669.449	85
669.651	76
669.854	86
670.057	86
670.259	79
670.462	81
670.665	84
670.867	81
671.07	90
671.272	83
671.475	89
671.677	92
671.88	86
672.082	82
672.284	90
672.487	86
672.689	87
672.892	73
