Data from 1984.PennyLincolnUp.Lamp.En5.5.200Scan.071819.P1_HRD10591_16-57-49-967.txt Node
Date: Thu Jul 18 16:57:49 EDT 2019
User: cochatt
Spectrometer: HR+D1059
Trigger mode: 1
Integration Time (sec): 1.000000E-1
Scans to average: 1
Electric dark correction enabled: true
Nonlinearity correction enabled: false
Boxcar width: 0
XAxis mode: Wavelengths
Number of Pixels in Spectrum: 2048
>>>>>Begin Spectral Data<<<<<
223.165	-24
223.4	-24
223.635	-24
223.869	-11
224.104	-20
224.338	-25
224.573	-3
224.808	-10
225.042	-6
225.277	-8
225.511	-9
225.746	9
225.98	9
226.215	1
226.449	5
226.683	30
226.918	12
227.152	50
227.387	43
227.621	39
227.856	43
228.09	37
228.324	39
228.559	48
228.793	64
229.027	103
229.262	92
229.496	88
229.73	97
229.964	126
230.199	119
230.433	130
230.667	113
230.901	106
231.136	111
231.37	113
231.604	127
231.838	125
232.072	98
232.306	104
232.541	119
232.775	122
233.009	120
233.243	109
233.477	119
233.711	105
233.945	107
234.179	106
234.413	104
234.647	133
234.881	125
235.115	106
235.349	117
235.583	106
235.817	121
236.051	112
236.285	117
236.519	112
236.753	125
236.987	139
237.221	142
237.455	153
237.689	152
237.922	126
238.156	122
238.39	127
238.624	133
238.858	125
239.091	119
239.325	113
239.559	131
239.793	133
240.027	119
240.26	138
240.494	152
240.728	129
240.961	136
241.195	130
241.429	127
241.662	130
241.896	126
242.13	129
242.363	119
242.597	122
242.83	128
243.064	135
243.298	143
243.531	133
243.765	133
243.998	131
244.232	141
244.465	134
244.699	130
244.932	135
245.166	147
245.399	142
245.633	127
245.866	138
246.099	141
246.333	138
246.566	141
246.8	128
247.033	137
247.266	146
247.5	144
247.733	146
247.966	142
248.2	165
248.433	146
248.666	159
248.899	160
249.133	157
249.366	190
249.599	176
249.832	153
250.066	169
250.299	169
250.532	163
250.765	172
250.998	203
251.231	197
251.465	167
251.698	181
251.931	163
252.164	173
252.397	174
252.63	193
252.863	172
253.096	186
253.329	170
253.562	177
253.795	202
254.028	189
254.261	201
254.494	189
254.727	197
254.96	234
255.193	217
255.426	210
255.659	204
255.892	199
256.124	193
256.357	208
256.59	179
256.823	187
257.056	189
257.289	194
257.521	196
257.754	184
257.987	185
258.22	191
258.452	197
258.685	173
258.918	181
259.151	205
259.383	195
259.616	189
259.849	209
260.081	191
260.314	220
260.547	224
260.779	209
261.012	201
261.244	171
261.477	194
261.71	209
261.942	210
262.175	201
262.407	197
262.64	204
262.872	192
263.105	190
263.337	205
263.57	199
263.802	217
264.035	199
264.267	200
264.499	203
264.732	198
264.964	196
265.197	195
265.429	205
265.661	207
265.894	192
266.126	213
266.358	216
266.591	215
266.823	217
267.055	219
267.287	222
267.52	227
267.752	212
267.984	215
268.216	206
268.448	205
268.681	231
268.913	226
269.145	226
269.377	241
269.609	240
269.841	234
270.073	232
270.306	250
270.538	273
270.77	266
271.002	255
271.234	257
271.466	249
271.698	241
271.93	249
272.162	261
272.394	265
272.626	250
272.858	239
273.09	259
273.322	249
273.553	249
273.785	254
274.017	235
274.249	240
274.481	244
274.713	235
274.945	227
275.176	228
275.408	261
275.64	249
275.872	243
276.104	250
276.335	237
276.567	254
276.799	261
277.031	264
277.262	269
277.494	262
277.726	271
277.957	253
278.189	260
278.421	251
278.652	265
278.884	263
279.115	241
279.347	242
279.579	264
279.81	234
280.042	257
280.273	241
280.505	243
280.736	260
280.968	251
281.199	265
281.431	248
281.662	278
281.894	268
282.125	268
282.356	275
282.588	287
282.819	282
283.051	267
283.282	256
283.513	289
283.745	265
283.976	285
284.207	274
284.439	273
284.67	270
284.901	270
285.132	289
285.364	252
285.595	265
285.826	267
286.057	258
286.288	269
286.52	271
286.751	285
286.982	261
287.213	293
287.444	275
287.675	283
287.906	276
288.138	279
288.369	277
288.6	286
288.831	292
289.062	284
289.293	270
289.524	277
289.755	289
289.986	291
290.217	281
290.448	270
290.679	286
290.91	289
291.141	290
291.371	276
291.602	289
291.833	283
292.064	301
292.295	279
292.526	284
292.757	274
292.987	277
293.218	282
293.449	290
293.68	301
293.91	285
294.141	302
294.372	282
294.603	281
294.833	298
295.064	298
295.295	268
295.525	285
295.756	302
295.987	290
296.217	304
296.448	306
296.679	312
296.909	289
297.14	302
297.37	282
297.601	296
297.831	285
298.062	307
298.292	304
298.523	298
298.753	293
298.984	300
299.214	297
299.445	321
299.675	320
299.905	316
300.136	314
300.366	310
300.597	312
300.827	298
301.057	328
301.288	305
301.518	325
301.748	315
301.979	336
302.209	326
302.439	333
302.669	323
302.9	329
303.13	303
303.36	313
303.59	321
303.82	336
304.051	317
304.281	336
304.511	310
304.741	303
304.971	313
305.201	322
305.431	329
305.661	320
305.891	322
306.121	318
306.352	337
306.582	307
306.812	301
307.042	301
307.272	305
307.502	317
307.731	320
307.961	303
308.191	317
308.421	327
308.651	316
308.881	317
309.111	326
309.341	319
309.571	326
309.8	327
310.03	329
310.26	329
310.49	335
310.72	336
310.949	344
311.179	334
311.409	330
311.639	318
311.868	323
312.098	356
312.328	365
312.557	357
312.787	364
313.017	354
313.246	358
313.476	346
313.706	342
313.935	335
314.165	349
314.394	356
314.624	347
314.853	354
315.083	370
315.312	365
315.542	338
315.771	358
316.001	343
316.23	340
316.46	356
316.689	347
316.919	361
317.148	358
317.377	351
317.607	336
317.836	351
318.065	345
318.295	339
318.524	349
318.753	356
318.983	360
319.212	353
319.441	342
319.67	358
319.9	346
320.129	351
320.358	360
320.587	347
320.816	344
321.046	335
321.275	366
321.504	359
321.733	357
321.962	368
322.191	375
322.42	366
322.649	377
322.878	384
323.108	380
323.337	394
323.566	386
323.795	410
324.024	448
324.253	496
324.482	650
324.71	936
324.939	1243
325.168	1093
325.397	655
325.626	490
325.855	437
326.084	412
326.313	403
326.542	416
326.77	436
326.999	502
327.228	627
327.457	855
327.686	999
327.914	696
328.143	549
328.372	468
328.6	433
328.829	441
329.058	457
329.287	422
329.515	427
329.744	406
329.972	431
330.201	434
330.43	442
330.658	441
330.887	447
331.115	459
331.344	431
331.572	402
331.801	426
332.03	419
332.258	407
332.486	429
332.715	434
332.943	432
333.172	439
333.4	466
333.629	471
333.857	462
334.085	465
334.314	454
334.542	463
334.771	466
334.999	449
335.227	433
335.455	425
335.684	442
335.912	413
336.14	413
336.369	416
336.597	423
336.825	410
337.053	421
337.281	425
337.51	414
337.738	426
337.966	418
338.194	419
338.422	397
338.65	401
338.878	402
339.106	399
339.334	397
339.562	418
339.79	398
340.018	386
340.246	381
340.474	399
340.702	385
340.93	408
341.158	383
341.386	389
341.614	408
341.842	397
342.07	370
342.298	405
342.526	385
342.754	373
342.981	387
343.209	383
343.437	398
343.665	398
343.893	417
344.12	412
344.348	455
344.576	396
344.804	423
345.031	396
345.259	396
345.487	390
345.714	399
345.942	374
346.17	390
346.397	362
346.625	370
346.853	367
347.08	363
347.308	381
347.535	372
347.763	370
347.99	387
348.218	375
348.445	347
348.673	371
348.9	375
349.128	363
349.355	369
349.583	359
349.81	330
350.037	356
350.265	367
350.492	361
350.72	345
350.947	355
351.174	355
351.402	356
351.629	381
351.856	359
352.083	369
352.311	375
352.538	354
352.765	368
352.992	362
353.22	366
353.447	380
353.674	358
353.901	362
354.128	350
354.355	352
354.583	362
354.81	346
355.037	343
355.264	341
355.491	347
355.718	356
355.945	352
356.172	350
356.399	359
356.626	359
356.853	345
357.08	360
357.307	341
357.534	339
357.761	346
357.988	363
358.215	352
358.441	353
358.668	356
358.895	343
359.122	342
359.349	361
359.576	375
359.802	358
360.029	382
360.256	390
360.483	375
360.709	369
360.936	369
361.163	361
361.39	379
361.616	357
361.843	359
362.07	345
362.296	365
362.523	369
362.749	365
362.976	340
363.203	354
363.429	359
363.656	351
363.882	353
364.109	351
364.335	350
364.562	362
364.788	343
365.015	356
365.241	356
365.468	341
365.694	352
365.92	334
366.147	342
366.373	364
366.599	355
366.826	345
367.052	343
367.278	343
367.505	337
367.731	342
367.957	347
368.184	337
368.41	359
368.636	346
368.862	375
369.089	376
369.315	368
369.541	340
369.767	354
369.993	358
370.219	354
370.445	368
370.672	346
370.898	344
371.124	362
371.35	356
371.576	361
371.802	371
372.028	367
372.254	361
372.48	371
372.706	379
372.932	373
373.158	361
373.384	369
373.61	379
373.835	363
374.061	358
374.287	353
374.513	366
374.739	383
374.965	395
375.191	388
375.416	378
375.642	376
375.868	377
376.094	368
376.319	363
376.545	363
376.771	370
376.997	350
377.222	349
377.448	358
377.674	376
377.899	367
378.125	354
378.35	347
378.576	351
378.802	349
379.027	352
379.253	348
379.478	358
379.704	357
379.929	366
380.155	360
380.38	356
380.606	354
380.831	363
381.057	352
381.282	360
381.507	354
381.733	358
381.958	362
382.184	356
382.409	358
382.634	396
382.86	385
383.085	366
383.31	383
383.535	381
383.761	377
383.986	392
384.211	376
384.436	384
384.662	397
384.887	410
385.112	390
385.337	403
385.562	417
385.787	396
386.013	416
386.238	405
386.463	395
386.688	405
386.913	406
387.138	413
387.363	414
387.588	397
387.813	403
388.038	409
388.263	422
388.488	413
388.713	412
388.938	404
389.163	378
389.387	394
389.612	393
389.837	398
390.062	377
390.287	383
390.512	410
390.736	389
390.961	405
391.186	402
391.411	416
391.636	414
391.86	425
392.085	458
392.31	450
392.534	408
392.759	419
392.984	418
393.208	402
393.433	411
393.658	401
393.882	408
394.107	408
394.331	421
394.556	431
394.78	400
395.005	429
395.229	414
395.454	429
395.678	449
395.903	439
396.127	452
396.352	453
396.576	421
396.801	407
397.025	414
397.249	430
397.474	437
397.698	445
397.922	444
398.147	451
398.371	454
398.595	440
398.82	491
399.044	493
399.268	522
399.492	592
399.717	622
399.941	633
400.165	597
400.389	592
400.613	551
400.837	501
401.062	488
401.286	471
401.51	464
401.734	461
401.958	468
402.182	479
402.406	495
402.63	480
402.854	478
403.078	510
403.302	503
403.526	495
403.75	521
403.974	516
404.198	494
404.422	512
404.645	518
404.869	517
405.093	540
405.317	535
405.541	552
405.765	540
405.988	534
406.212	535
406.436	549
406.66	541
406.883	503
407.107	552
407.331	593
407.555	626
407.778	632
408.002	594
408.226	537
408.449	558
408.673	554
408.896	540
409.12	570
409.344	533
409.567	508
409.791	513
410.014	511
410.238	485
410.461	502
410.685	504
410.908	506
411.132	504
411.355	517
411.578	497
411.802	462
412.025	471
412.249	490
412.472	515
412.695	515
412.919	511
413.142	477
413.365	468
413.589	474
413.812	460
414.035	461
414.258	471
414.482	469
414.705	454
414.928	466
415.151	500
415.374	474
415.597	450
415.821	471
416.044	468
416.267	473
416.49	451
416.713	457
416.936	455
417.159	445
417.382	499
417.605	479
417.828	458
418.051	473
418.274	471
418.497	495
418.72	455
418.943	446
419.166	494
419.389	522
419.611	519
419.834	484
420.057	487
420.28	475
420.503	464
420.726	474
420.948	485
421.171	502
421.394	536
421.617	482
421.839	480
422.062	467
422.285	478
422.507	510
422.73	565
422.953	547
423.175	512
423.398	502
423.621	517
423.843	501
424.066	502
424.288	506
424.511	519
424.733	527
424.956	590
425.178	558
425.401	542
425.623	577
425.846	523
426.068	465
426.291	478
426.513	465
426.735	476
426.958	486
427.18	544
427.402	621
427.625	665
427.847	575
428.069	525
428.292	471
428.514	459
428.736	452
428.958	443
429.181	456
429.403	459
429.625	441
429.847	458
430.069	474
430.292	480
430.514	446
430.736	426
430.958	451
431.18	421
431.402	439
431.624	411
431.846	431
432.068	442
432.29	441
432.512	446
432.734	449
432.956	432
433.178	453
433.4	435
433.622	438
433.844	430
434.066	415
434.287	409
434.509	463
434.731	460
434.953	481
435.175	443
435.397	475
435.618	466
435.84	488
436.062	527
436.284	574
436.505	503
436.727	481
436.949	455
437.17	440
437.392	458
437.614	444
437.835	450
438.057	504
438.278	550
438.5	563
438.721	583
438.943	576
439.165	484
439.386	462
439.608	484
439.829	486
440.05	478
440.272	491
440.493	468
440.715	481
440.936	453
441.158	463
441.379	448
441.6	475
441.822	487
442.043	510
442.264	546
442.486	553
442.707	515
442.928	501
443.149	495
443.371	492
443.592	531
443.813	588
444.034	613
444.255	547
444.476	522
444.698	520
444.919	537
445.14	668
445.361	595
445.582	521
445.803	514
446.024	566
446.245	570
446.466	544
446.687	500
446.908	464
447.129	459
447.35	445
447.571	439
447.792	409
448.013	450
448.234	436
448.455	456
448.675	527
448.896	593
449.117	494
449.338	502
449.559	552
449.779	582
450	499
450.221	448
450.442	421
450.662	425
450.883	431
451.104	430
451.324	432
451.545	430
451.766	403
451.986	379
452.207	377
452.428	399
452.648	393
452.869	391
453.089	400
453.31	420
453.53	403
453.751	408
453.971	379
454.192	392
454.412	400
454.633	403
454.853	402
455.073	388
455.294	389
455.514	429
455.734	402
455.955	402
456.175	385
456.395	379
456.616	371
456.836	357
457.056	380
457.276	361
457.497	383
457.717	385
457.937	384
458.157	375
458.377	387
458.598	392
458.818	455
459.038	442
459.258	466
459.478	448
459.698	433
459.918	430
460.138	441
460.358	441
460.578	458
460.798	473
461.018	456
461.238	460
461.458	475
461.678	458
461.898	455
462.118	461
462.338	483
462.558	505
462.777	493
462.997	525
463.217	559
463.437	552
463.657	549
463.876	513
464.096	530
464.316	511
464.536	480
464.755	525
464.975	480
465.195	502
465.414	492
465.634	463
465.854	439
466.073	428
466.293	430
466.512	406
466.732	407
466.951	416
467.171	422
467.391	426
467.61	408
467.829	419
468.049	416
468.268	418
468.488	388
468.707	416
468.927	400
469.146	403
469.365	407
469.585	384
469.804	396
470.023	422
470.243	399
470.462	416
470.681	425
470.901	414
471.12	405
471.339	396
471.558	401
471.777	411
471.997	418
472.216	437
472.435	421
472.654	392
472.873	407
473.092	410
473.311	402
473.53	402
473.749	401
473.968	427
474.187	461
474.406	476
474.625	434
474.844	421
475.063	408
475.282	387
475.501	383
475.72	390
475.939	427
476.158	400
476.377	415
476.596	407
476.814	410
477.033	395
477.252	423
477.471	437
477.69	459
477.908	456
478.127	455
478.346	439
478.564	463
478.783	455
479.002	468
479.22	497
479.439	477
479.658	496
479.876	467
480.095	473
480.313	504
480.532	507
480.751	527
480.969	519
481.188	521
481.406	515
481.624	492
481.843	483
482.061	457
482.28	451
482.498	458
482.717	450
482.935	458
483.153	460
483.372	450
483.59	460
483.808	455
484.027	453
484.245	460
484.463	464
484.681	460
484.9	458
485.118	477
485.336	467
485.554	465
485.772	456
485.99	478
486.209	472
486.427	474
486.645	494
486.863	491
487.081	475
487.299	477
487.517	477
487.735	483
487.953	478
488.171	476
488.389	489
488.607	481
488.825	477
489.043	497
489.261	478
489.479	484
489.696	485
489.914	486
490.132	491
490.35	483
490.568	505
490.786	510
491.003	532
491.221	501
491.439	523
491.657	531
491.874	516
492.092	530
492.31	513
492.527	549
492.745	545
492.963	522
493.18	541
493.398	543
493.615	554
493.833	530
494.05	540
494.268	557
494.485	547
494.703	534
494.92	548
495.138	558
495.355	558
495.573	528
495.79	551
496.008	537
496.225	542
496.442	562
496.66	561
496.877	559
497.094	589
497.312	581
497.529	590
497.746	601
497.963	598
498.181	608
498.398	628
498.615	647
498.832	693
499.049	714
499.267	757
499.484	794
499.701	848
499.918	893
500.135	969
500.352	1053
500.569	1095
500.786	1073
501.003	1061
501.22	975
501.437	901
501.654	869
501.871	801
502.088	773
502.305	720
502.522	682
502.739	669
502.956	645
503.172	633
503.389	610
503.606	598
503.823	569
504.04	596
504.256	601
504.473	610
504.69	585
504.907	588
505.123	561
505.34	549
505.557	541
505.773	537
505.99	554
506.207	498
506.423	491
506.64	512
506.856	537
507.073	516
507.289	483
507.506	490
507.722	497
507.939	505
508.155	490
508.372	472
508.588	490
508.805	486
509.021	478
509.238	483
509.454	479
509.67	482
509.887	475
510.103	483
510.319	485
510.536	523
510.752	761
510.968	654
511.184	494
511.401	468
511.617	457
511.833	458
512.049	475
512.265	452
512.481	459
512.698	463
512.914	457
513.13	454
513.346	449
513.562	458
513.778	458
513.994	472
514.21	471
514.426	477
514.642	491
514.858	495
515.074	505
515.29	568
515.506	746
515.721	662
515.937	538
516.153	493
516.369	502
516.585	511
516.801	518
517.016	517
517.232	517
517.448	568
517.664	543
517.879	569
518.095	535
518.311	546
518.527	540
518.742	524
518.958	510
519.173	478
519.389	487
519.605	482
519.82	475
520.036	495
520.251	465
520.467	452
520.682	479
520.898	485
521.113	486
521.329	521
521.544	514
521.76	584
521.975	889
522.19	854
522.406	571
522.621	471
522.836	435
523.052	434
523.267	446
523.482	419
523.698	426
523.913	411
524.128	439
524.343	403
524.559	417
524.774	394
524.989	392
525.204	401
525.419	402
525.634	419
525.849	416
526.064	411
526.28	401
526.495	386
526.71	397
526.925	387
527.14	384
527.355	394
527.57	414
527.785	405
527.999	371
528.214	393
528.429	383
528.644	405
528.859	394
529.074	374
529.289	393
529.503	444
529.718	418
529.933	409
530.148	393
530.363	416
530.577	404
530.792	391
531.007	404
531.221	384
531.436	387
531.651	382
531.865	395
532.08	407
532.295	389
532.509	396
532.724	395
532.938	392
533.153	397
533.367	392
533.582	404
533.796	396
534.011	385
534.225	376
534.44	363
534.654	396
534.868	384
535.083	389
535.297	389
535.511	385
535.726	380
535.94	390
536.154	374
536.369	382
536.583	387
536.797	366
537.011	370
537.225	373
537.44	377
537.654	376
537.868	374
538.082	377
538.296	368
538.51	372
538.724	383
538.938	371
539.153	377
539.367	381
539.581	366
539.795	368
540.009	358
540.222	369
540.436	369
540.65	367
540.864	377
541.078	375
541.292	385
541.506	365
541.72	359
541.934	373
542.147	373
542.361	371
542.575	379
542.789	378
543.002	366
543.216	361
543.43	353
543.644	353
543.857	354
544.071	361
544.285	379
544.498	361
544.712	381
544.925	375
545.139	370
545.352	366
545.566	372
545.779	381
545.993	365
546.206	382
546.42	365
546.633	366
546.847	373
547.06	369
547.274	364
547.487	360
547.7	379
547.914	358
548.127	362
548.34	357
548.554	358
548.767	358
548.98	373
549.193	347
549.407	375
549.62	386
549.833	368
550.046	369
550.259	375
550.473	352
550.686	381
550.899	379
551.112	350
551.325	352
551.538	361
551.751	366
551.964	351
552.177	373
552.39	368
552.603	366
552.816	365
553.029	370
553.242	386
553.455	381
553.667	410
553.88	393
554.093	369
554.306	387
554.519	374
554.732	380
554.944	382
555.157	354
555.37	351
555.583	362
555.795	346
556.008	338
556.221	331
556.433	345
556.646	333
556.859	329
557.071	326
557.284	310
557.496	325
557.709	324
557.921	333
558.134	325
558.346	306
558.559	327
558.771	325
558.984	327
559.196	321
559.409	325
559.621	333
559.833	322
560.046	324
560.258	314
560.47	337
560.683	322
560.895	320
561.107	318
561.32	318
561.532	333
561.744	317
561.956	345
562.168	343
562.381	322
562.593	330
562.805	314
563.017	327
563.229	342
563.441	318
563.653	339
563.865	321
564.077	319
564.289	328
564.501	344
564.713	342
564.925	336
565.137	326
565.349	345
565.561	360
565.773	382
565.985	393
566.197	382
566.408	412
566.62	430
566.832	458
567.044	453
567.255	470
567.467	446
567.679	496
567.891	519
568.102	514
568.314	495
568.526	465
568.737	425
568.949	413
569.161	389
569.372	368
569.584	351
569.795	371
570.007	335
570.218	376
570.43	361
570.641	330
570.853	334
571.064	330
571.276	329
571.487	331
571.698	331
571.91	318
572.121	335
572.333	309
572.544	321
572.755	296
572.966	286
573.178	287
573.389	309
573.6	285
573.811	282
574.023	285
574.234	288
574.445	285
574.656	301
574.867	293
575.078	305
575.289	286
575.501	281
575.712	280
575.923	265
576.134	279
576.345	280
576.556	286
576.767	266
576.978	270
577.188	278
577.399	279
577.61	252
577.821	270
578.032	283
578.243	306
578.454	397
578.665	325
578.875	270
579.086	281
579.297	253
579.508	281
579.718	257
579.929	268
580.14	262
580.35	262
580.561	259
580.772	269
580.982	255
581.193	269
581.403	250
581.614	233
581.825	252
582.035	271
582.246	266
582.456	263
582.667	224
582.877	256
583.087	261
583.298	254
583.508	259
583.719	278
583.929	261
584.139	265
584.35	257
584.56	249
584.77	251
584.981	246
585.191	253
585.401	238
585.611	243
585.821	271
586.032	246
586.242	251
586.452	254
586.662	265
586.872	247
587.082	248
587.292	252
587.502	254
587.713	263
587.923	243
588.133	237
588.343	254
588.553	253
588.762	267
588.972	254
589.182	287
589.392	284
589.602	257
589.812	272
590.022	274
590.232	272
590.441	251
590.651	253
590.861	231
591.071	256
591.281	261
591.49	253
591.7	250
591.91	262
592.119	271
592.329	278
592.539	277
592.748	302
592.958	271
593.167	288
593.377	294
593.587	292
593.796	290
594.006	288
594.215	313
594.424	306
594.634	307
594.843	297
595.053	297
595.262	279
595.472	246
595.681	246
595.89	248
596.1	232
596.309	245
596.518	248
596.727	242
596.937	239
597.146	244
597.355	233
597.564	225
597.774	254
597.983	226
598.192	229
598.401	229
598.61	231
598.819	224
599.028	229
599.237	224
599.446	220
599.655	226
599.864	223
600.073	215
600.282	218
600.491	222
600.7	225
600.909	217
601.118	227
601.327	212
601.536	205
601.745	221
601.953	224
602.162	219
602.371	227
602.58	230
602.789	236
602.997	218
603.206	213
603.415	210
603.623	221
603.832	211
604.041	205
604.249	224
604.458	221
604.666	210
604.875	212
605.084	205
605.292	218
605.501	211
605.709	200
605.918	211
606.126	204
606.334	217
606.543	210
606.751	219
606.96	211
607.168	215
607.376	195
607.585	207
607.793	224
608.001	200
608.21	210
608.418	217
608.626	205
608.834	209
609.043	207
609.251	205
609.459	191
609.667	203
609.875	213
610.083	218
610.291	202
610.499	203
610.707	207
610.916	206
611.124	217
611.332	217
611.54	208
611.748	207
611.955	217
612.163	214
612.371	218
612.579	215
612.787	205
612.995	213
613.203	200
613.411	190
613.618	203
613.826	219
614.034	195
614.242	202
614.449	211
614.657	207
614.865	210
615.072	205
615.28	201
615.488	210
615.695	225
615.903	196
616.111	222
616.318	225
616.526	209
616.733	206
616.941	208
617.148	213
617.356	208
617.563	194
617.771	198
617.978	203
618.185	190
618.393	215
618.6	218
618.807	181
619.015	187
619.222	207
619.429	211
619.637	199
619.844	205
620.051	207
620.258	190
620.466	192
620.673	190
620.88	207
621.087	189
621.294	197
621.501	195
621.708	199
621.915	202
622.122	185
622.329	202
622.536	195
622.743	202
622.95	187
623.157	192
623.364	188
623.571	189
623.778	191
623.985	204
624.192	199
624.399	193
624.606	187
624.812	168
625.019	186
625.226	184
625.433	186
625.639	167
625.846	181
626.053	178
626.259	185
626.466	181
626.673	184
626.879	176
627.086	173
627.293	204
627.499	200
627.706	182
627.912	197
628.119	181
628.325	176
628.532	174
628.738	181
628.945	173
629.151	165
629.357	179
629.564	167
629.77	193
629.976	181
630.183	177
630.389	195
630.595	182
630.802	162
631.008	175
631.214	161
631.42	171
631.627	162
631.833	164
632.039	176
632.245	168
632.451	166
632.657	163
632.863	159
633.069	160
633.275	166
633.481	161
633.688	182
633.893	176
634.099	166
634.305	163
634.511	156
634.717	165
634.923	162
635.129	160
635.335	163
635.541	157
635.747	174
635.952	166
636.158	171
636.364	181
636.57	159
636.775	170
636.981	162
637.187	165
637.392	169
637.598	155
637.804	163
638.009	163
638.215	168
638.421	153
638.626	157
638.832	150
639.037	151
639.243	152
639.448	155
639.654	153
639.859	162
640.065	159
640.27	155
640.475	154
640.681	158
640.886	143
641.091	158
641.297	161
641.502	157
641.707	162
641.913	161
642.118	151
642.323	142
642.528	143
642.733	162
642.939	170
643.144	135
643.349	151
643.554	153
643.759	147
643.964	156
644.169	147
644.374	157
644.579	146
644.784	150
644.989	151
645.194	146
645.399	153
645.604	138
645.809	147
646.014	144
646.219	146
646.423	149
646.628	153
646.833	146
647.038	160
647.243	155
647.447	156
647.652	151
647.857	160
648.062	160
648.266	152
648.471	153
648.676	158
648.88	182
649.085	179
649.289	151
649.494	144
649.698	163
649.903	144
650.107	160
650.312	153
650.516	150
650.721	153
650.925	150
651.13	144
651.334	133
651.539	145
651.743	137
651.947	129
652.152	144
652.356	146
652.56	146
652.764	128
652.969	129
653.173	129
653.377	152
653.581	142
653.785	138
653.99	136
654.194	137
654.398	128
654.602	130
654.806	123
655.01	137
655.214	131
655.418	143
655.622	134
655.826	135
656.03	134
656.234	133
656.438	138
656.642	124
656.846	146
657.049	142
657.253	123
657.457	121
657.661	121
657.865	100
658.068	113
658.272	109
658.476	115
658.68	102
658.883	122
659.087	110
659.291	97
659.494	109
659.698	101
659.901	102
660.105	94
660.309	91
660.512	115
660.716	102
660.919	102
661.123	101
661.326	70
661.53	85
661.733	94
661.936	88
662.14	103
662.343	91
662.546	81
662.75	96
662.953	106
663.156	104
663.36	77
663.563	101
663.766	103
663.969	87
664.173	86
664.376	98
664.579	92
664.782	84
664.985	88
665.188	98
665.391	79
665.594	89
665.797	80
666	79
666.203	93
666.406	91
666.609	97
666.812	92
667.015	84
667.218	82
667.421	98
667.624	84
667.827	96
668.03	93
668.232	101
668.435	93
668.638	92
668.841	102
669.043	100
669.246	81
669.449	75
669.651	93
669.854	93
670.057	90
670.259	76
670.462	97
670.665	77
670.867	96
671.07	87
671.272	95
671.475	102
671.677	96
671.88	86
672.082	89
672.284	94
672.487	93
672.689	90
672.892	78
