Data from 1984.PennyLincolnUp.Lamp.En5.5.200Scan.071819.P1_HRD10591_16-57-11-967.txt Node
Date: Thu Jul 18 16:57:11 EDT 2019
User: cochatt
Spectrometer: HR+D1059
Trigger mode: 1
Integration Time (sec): 1.000000E-1
Scans to average: 1
Electric dark correction enabled: true
Nonlinearity correction enabled: false
Boxcar width: 0
XAxis mode: Wavelengths
Number of Pixels in Spectrum: 2048
>>>>>Begin Spectral Data<<<<<
223.165	-10
223.4	-10
223.635	-10
223.869	-11
224.104	-13
224.338	0
224.573	-9
224.808	-16
225.042	-12
225.277	-8
225.511	-6
225.746	3
225.98	-6
226.215	-1
226.449	11
226.683	20
226.918	22
227.152	36
227.387	18
227.621	28
227.856	42
228.09	52
228.324	48
228.559	66
228.793	60
229.027	65
229.262	99
229.496	83
229.73	91
229.964	102
230.199	93
230.433	105
230.667	96
230.901	96
231.136	103
231.37	114
231.604	111
231.838	98
232.072	107
232.306	109
232.541	117
232.775	99
233.009	91
233.243	108
233.477	102
233.711	105
233.945	94
234.179	114
234.413	104
234.647	91
234.881	112
235.115	107
235.349	104
235.583	115
235.817	112
236.051	107
236.285	100
236.519	104
236.753	108
236.987	113
237.221	112
237.455	137
237.689	129
237.922	121
238.156	102
238.39	116
238.624	113
238.858	113
239.091	94
239.325	121
239.559	110
239.793	112
240.027	104
240.26	111
240.494	109
240.728	110
240.961	123
241.195	111
241.429	117
241.662	117
241.896	123
242.13	121
242.363	93
242.597	104
242.83	127
243.064	121
243.298	119
243.531	113
243.765	110
243.998	128
244.232	140
244.465	134
244.699	134
244.932	117
245.166	120
245.399	130
245.633	134
245.866	129
246.099	128
246.333	137
246.566	122
246.8	121
247.033	132
247.266	139
247.5	145
247.733	146
247.966	126
248.2	139
248.433	159
248.666	150
248.899	149
249.133	153
249.366	134
249.599	146
249.832	156
250.066	142
250.299	137
250.532	140
250.765	145
250.998	156
251.231	154
251.465	165
251.698	149
251.931	146
252.164	171
252.397	160
252.63	150
252.863	148
253.096	159
253.329	176
253.562	176
253.795	169
254.028	165
254.261	169
254.494	158
254.727	174
254.96	178
255.193	179
255.426	164
255.659	177
255.892	160
256.124	162
256.357	165
256.59	163
256.823	155
257.056	165
257.289	169
257.521	168
257.754	159
257.987	173
258.22	151
258.452	153
258.685	162
258.918	182
259.151	171
259.383	183
259.616	156
259.849	159
260.081	198
260.314	188
260.547	183
260.779	173
261.012	188
261.244	178
261.477	184
261.71	187
261.942	188
262.175	187
262.407	196
262.64	183
262.872	197
263.105	181
263.337	192
263.57	192
263.802	183
264.035	166
264.267	180
264.499	177
264.732	165
264.964	188
265.197	184
265.429	178
265.661	186
265.894	173
266.126	195
266.358	176
266.591	204
266.823	195
267.055	183
267.287	187
267.52	196
267.752	185
267.984	202
268.216	193
268.448	191
268.681	193
268.913	203
269.145	200
269.377	194
269.609	213
269.841	216
270.073	219
270.306	229
270.538	204
270.77	213
271.002	205
271.234	206
271.466	211
271.698	208
271.93	218
272.162	219
272.394	224
272.626	217
272.858	221
273.09	220
273.322	214
273.553	182
273.785	215
274.017	220
274.249	218
274.481	205
274.713	220
274.945	235
275.176	216
275.408	207
275.64	213
275.872	209
276.104	224
276.335	224
276.567	213
276.799	214
277.031	225
277.262	237
277.494	240
277.726	240
277.957	227
278.189	236
278.421	219
278.652	217
278.884	246
279.115	237
279.347	224
279.579	230
279.81	237
280.042	232
280.273	238
280.505	220
280.736	223
280.968	225
281.199	252
281.431	228
281.662	230
281.894	250
282.125	242
282.356	236
282.588	252
282.819	245
283.051	244
283.282	230
283.513	216
283.745	231
283.976	241
284.207	251
284.439	238
284.67	234
284.901	255
285.132	236
285.364	248
285.595	260
285.826	255
286.057	248
286.288	246
286.52	243
286.751	259
286.982	266
287.213	236
287.444	257
287.675	243
287.906	253
288.138	257
288.369	261
288.6	258
288.831	265
289.062	244
289.293	267
289.524	248
289.755	251
289.986	264
290.217	251
290.448	258
290.679	266
290.91	264
291.141	243
291.371	254
291.602	262
291.833	247
292.064	253
292.295	265
292.526	236
292.757	261
292.987	260
293.218	268
293.449	246
293.68	258
293.91	266
294.141	268
294.372	253
294.603	264
294.833	261
295.064	262
295.295	265
295.525	246
295.756	246
295.987	256
296.217	259
296.448	265
296.679	273
296.909	255
297.14	252
297.37	293
297.601	278
297.831	273
298.062	270
298.292	279
298.523	273
298.753	280
298.984	270
299.214	266
299.445	250
299.675	278
299.905	265
300.136	269
300.366	283
300.597	270
300.827	294
301.057	276
301.288	286
301.518	290
301.748	283
301.979	300
302.209	291
302.439	285
302.669	285
302.9	272
303.13	272
303.36	306
303.59	288
303.82	285
304.051	292
304.281	281
304.511	278
304.741	283
304.971	280
305.201	300
305.431	307
305.661	312
305.891	290
306.121	292
306.352	292
306.582	279
306.812	288
307.042	300
307.272	294
307.502	286
307.731	291
307.961	280
308.191	274
308.421	254
308.651	282
308.881	294
309.111	295
309.341	279
309.571	298
309.8	297
310.03	290
310.26	285
310.49	290
310.72	288
310.949	305
311.179	309
311.409	298
311.639	314
311.868	318
312.098	306
312.328	314
312.557	314
312.787	306
313.017	316
313.246	304
313.476	314
313.706	315
313.935	315
314.165	325
314.394	321
314.624	320
314.853	322
315.083	311
315.312	310
315.542	315
315.771	301
316.001	276
316.23	333
316.46	316
316.689	297
316.919	297
317.148	317
317.377	316
317.607	294
317.836	310
318.065	322
318.295	317
318.524	304
318.753	299
318.983	303
319.212	313
319.441	311
319.67	308
319.9	300
320.129	306
320.358	309
320.587	316
320.816	314
321.046	307
321.275	325
321.504	315
321.733	324
321.962	323
322.191	337
322.42	316
322.649	325
322.878	328
323.108	302
323.337	334
323.566	347
323.795	339
324.024	366
324.253	378
324.482	453
324.71	592
324.939	789
325.168	656
325.397	429
325.626	370
325.855	342
326.084	335
326.313	343
326.542	352
326.77	356
326.999	365
327.228	452
327.457	560
327.686	629
327.914	458
328.143	365
328.372	372
328.6	343
328.829	356
329.058	340
329.287	363
329.515	364
329.744	362
329.972	354
330.201	339
330.43	333
330.658	347
330.887	357
331.115	366
331.344	354
331.572	362
331.801	359
332.03	371
332.258	356
332.486	356
332.715	378
332.943	379
333.172	389
333.4	395
333.629	409
333.857	397
334.085	416
334.314	414
334.542	401
334.771	395
334.999	408
335.227	392
335.455	375
335.684	381
335.912	391
336.14	373
336.369	377
336.597	387
336.825	376
337.053	369
337.281	373
337.51	368
337.738	382
337.966	377
338.194	343
338.422	350
338.65	360
338.878	369
339.106	340
339.334	372
339.562	339
339.79	334
340.018	346
340.246	337
340.474	336
340.702	341
340.93	345
341.158	343
341.386	325
341.614	353
341.842	344
342.07	337
342.298	337
342.526	333
342.754	346
342.981	337
343.209	333
343.437	366
343.665	398
343.893	379
344.12	399
344.348	388
344.576	382
344.804	371
345.031	354
345.259	355
345.487	342
345.714	356
345.942	353
346.17	331
346.397	334
346.625	312
346.853	323
347.08	325
347.308	345
347.535	354
347.763	353
347.99	336
348.218	334
348.445	317
348.673	310
348.9	310
349.128	327
349.355	328
349.583	322
349.81	328
350.037	319
350.265	304
350.492	320
350.72	324
350.947	322
351.174	318
351.402	318
351.629	314
351.856	315
352.083	333
352.311	328
352.538	308
352.765	314
352.992	320
353.22	320
353.447	313
353.674	334
353.901	316
354.128	307
354.355	314
354.583	322
354.81	313
355.037	323
355.264	323
355.491	314
355.718	312
355.945	320
356.172	332
356.399	298
356.626	314
356.853	319
357.08	315
357.307	298
357.534	315
357.761	328
357.988	321
358.215	339
358.441	342
358.668	330
358.895	312
359.122	311
359.349	333
359.576	322
359.802	321
360.029	325
360.256	349
360.483	327
360.709	321
360.936	335
361.163	341
361.39	322
361.616	347
361.843	318
362.07	321
362.296	334
362.523	325
362.749	305
362.976	330
363.203	322
363.429	305
363.656	307
363.882	328
364.109	307
364.335	314
364.562	314
364.788	304
365.015	310
365.241	315
365.468	323
365.694	300
365.92	315
366.147	290
366.373	316
366.599	302
366.826	324
367.052	310
367.278	313
367.505	314
367.731	319
367.957	306
368.184	312
368.41	311
368.636	304
368.862	322
369.089	331
369.315	307
369.541	321
369.767	327
369.993	306
370.219	319
370.445	322
370.672	342
370.898	331
371.124	334
371.35	314
371.576	328
371.802	327
372.028	333
372.254	346
372.48	328
372.706	338
372.932	344
373.158	333
373.384	353
373.61	339
373.835	338
374.061	355
374.287	334
374.513	330
374.739	365
374.965	353
375.191	352
375.416	357
375.642	338
375.868	333
376.094	347
376.319	338
376.545	320
376.771	333
376.997	322
377.222	348
377.448	321
377.674	322
377.899	326
378.125	346
378.35	331
378.576	333
378.802	334
379.027	331
379.253	332
379.478	321
379.704	329
379.929	318
380.155	324
380.38	327
380.606	335
380.831	332
381.057	355
381.282	339
381.507	345
381.733	348
381.958	343
382.184	346
382.409	340
382.634	341
382.86	346
383.085	353
383.31	349
383.535	361
383.761	366
383.986	350
384.211	368
384.436	350
384.662	386
384.887	378
385.112	404
385.337	362
385.562	376
385.787	390
386.013	389
386.238	372
386.463	384
386.688	390
386.913	378
387.138	388
387.363	394
387.588	377
387.813	389
388.038	394
388.263	376
388.488	368
388.713	375
388.938	377
389.163	370
389.387	373
389.612	355
389.837	370
390.062	382
390.287	375
390.512	379
390.736	375
390.961	376
391.186	377
391.411	376
391.636	388
391.86	412
392.085	398
392.31	392
392.534	393
392.759	393
392.984	397
393.208	382
393.433	403
393.658	408
393.882	377
394.107	401
394.331	377
394.556	376
394.78	389
395.005	374
395.229	389
395.454	387
395.678	381
395.903	394
396.127	401
396.352	383
396.576	404
396.801	382
397.025	399
397.249	408
397.474	403
397.698	385
397.922	417
398.147	421
398.371	418
398.595	434
398.82	442
399.044	454
399.268	487
399.492	541
399.717	560
399.941	586
400.165	552
400.389	532
400.613	484
400.837	471
401.062	468
401.286	429
401.51	444
401.734	452
401.958	445
402.182	447
402.406	448
402.63	457
402.854	432
403.078	456
403.302	472
403.526	463
403.75	480
403.974	461
404.198	459
404.422	480
404.645	464
404.869	478
405.093	476
405.317	470
405.541	499
405.765	477
405.988	453
406.212	477
406.436	484
406.66	469
406.883	467
407.107	517
407.331	535
407.555	586
407.778	564
408.002	523
408.226	514
408.449	510
408.673	502
408.896	489
409.12	498
409.344	478
409.567	465
409.791	458
410.014	463
410.238	459
410.461	474
410.685	476
410.908	473
411.132	486
411.355	478
411.578	484
411.802	429
412.025	435
412.249	457
412.472	453
412.695	443
412.919	452
413.142	445
413.365	448
413.589	441
413.812	422
414.035	436
414.258	411
414.482	440
414.705	458
414.928	434
415.151	444
415.374	428
415.597	425
415.821	404
416.044	425
416.267	428
416.49	446
416.713	436
416.936	436
417.159	425
417.382	407
417.605	435
417.828	444
418.051	451
418.274	439
418.497	428
418.72	434
418.943	424
419.166	455
419.389	456
419.611	469
419.834	453
420.057	456
420.28	435
420.503	426
420.726	409
420.948	429
421.171	447
421.394	443
421.617	449
421.839	439
422.062	420
422.285	424
422.507	456
422.73	488
422.953	496
423.175	458
423.398	460
423.621	436
423.843	445
424.066	460
424.288	459
424.511	465
424.733	462
424.956	464
425.178	474
425.401	469
425.623	473
425.846	468
426.068	439
426.291	427
426.513	411
426.735	427
426.958	466
427.18	457
427.402	500
427.625	505
427.847	479
428.069	445
428.292	423
428.514	408
428.736	406
428.958	394
429.181	402
429.403	376
429.625	380
429.847	388
430.069	414
430.292	425
430.514	405
430.736	396
430.958	395
431.18	387
431.402	394
431.624	371
431.846	412
432.068	381
432.29	392
432.512	393
432.734	389
432.956	395
433.178	407
433.4	393
433.622	412
433.844	388
434.066	400
434.287	400
434.509	404
434.731	404
434.953	411
435.175	426
435.397	463
435.618	426
435.84	445
436.062	463
436.284	484
436.505	420
436.727	411
436.949	411
437.17	403
437.392	396
437.614	406
437.835	399
438.057	432
438.278	470
438.5	455
438.721	495
438.943	479
439.165	417
439.386	400
439.608	405
439.829	388
440.05	422
440.272	407
440.493	409
440.715	416
440.936	394
441.158	415
441.379	425
441.6	423
441.822	426
442.043	453
442.264	460
442.486	469
442.707	442
442.928	454
443.149	434
443.371	437
443.592	448
443.813	474
444.034	514
444.255	453
444.476	454
444.698	478
444.919	485
445.14	586
445.361	514
445.582	443
445.803	452
446.024	464
446.245	459
446.466	447
446.687	416
446.908	421
447.129	401
447.35	369
447.571	373
447.792	393
448.013	380
448.234	362
448.455	402
448.675	409
448.896	477
449.117	436
449.338	433
449.559	456
449.779	494
450	426
450.221	372
450.442	366
450.662	378
450.883	353
451.104	368
451.324	360
451.545	345
451.766	371
451.986	356
452.207	359
452.428	336
452.648	348
452.869	350
453.089	342
453.31	369
453.53	368
453.751	337
453.971	344
454.192	349
454.412	350
454.633	357
454.853	345
455.073	345
455.294	354
455.514	371
455.734	359
455.955	363
456.175	344
456.395	356
456.616	327
456.836	328
457.056	340
457.276	358
457.497	325
457.717	347
457.937	345
458.157	328
458.377	358
458.598	365
458.818	365
459.038	397
459.258	432
459.478	392
459.698	402
459.918	417
460.138	440
460.358	426
460.578	428
460.798	436
461.018	442
461.238	435
461.458	430
461.678	422
461.898	452
462.118	442
462.338	450
462.558	459
462.777	454
462.997	498
463.217	507
463.437	502
463.657	491
463.876	492
464.096	484
464.316	475
464.536	494
464.755	485
464.975	443
465.195	435
465.414	435
465.634	441
465.854	399
466.073	408
466.293	397
466.512	375
466.732	395
466.951	381
467.171	373
467.391	370
467.61	381
467.829	368
468.049	388
468.268	369
468.488	368
468.707	375
468.927	381
469.146	372
469.365	361
469.585	356
469.804	359
470.023	380
470.243	378
470.462	368
470.681	387
470.901	413
471.12	392
471.339	376
471.558	396
471.777	374
471.997	365
472.216	378
472.435	360
472.654	367
472.873	363
473.092	376
473.311	370
473.53	368
473.749	373
473.968	375
474.187	401
474.406	389
474.625	381
474.844	373
475.063	368
475.282	381
475.501	380
475.72	366
475.939	375
476.158	378
476.377	384
476.596	363
476.814	372
477.033	380
477.252	371
477.471	375
477.69	387
477.908	414
478.127	412
478.346	421
478.564	427
478.783	429
479.002	441
479.22	422
479.439	445
479.658	453
479.876	457
480.095	463
480.313	454
480.532	470
480.751	472
480.969	450
481.188	442
481.406	433
481.624	441
481.843	426
482.061	436
482.28	430
482.498	436
482.717	423
482.935	425
483.153	431
483.372	414
483.59	409
483.808	429
484.027	428
484.245	441
484.463	433
484.681	426
484.9	426
485.118	442
485.336	426
485.554	444
485.772	428
485.99	451
486.209	449
486.427	454
486.645	435
486.863	431
487.081	437
487.299	448
487.517	444
487.735	452
487.953	450
488.171	442
488.389	440
488.607	437
488.825	425
489.043	428
489.261	435
489.479	452
489.696	448
489.914	434
490.132	440
490.35	450
490.568	455
490.786	439
491.003	437
491.221	453
491.439	460
491.657	443
491.874	468
492.092	456
492.31	461
492.527	466
492.745	456
492.963	466
493.18	482
493.398	476
493.615	461
493.833	480
494.05	467
494.268	470
494.485	491
494.703	482
494.92	493
495.138	478
495.355	486
495.573	507
495.79	487
496.008	482
496.225	510
496.442	515
496.66	501
496.877	525
497.094	516
497.312	532
497.529	530
497.746	524
497.963	530
498.181	549
498.398	584
498.615	610
498.832	638
499.049	626
499.267	688
499.484	741
499.701	779
499.918	852
500.135	916
500.352	984
500.569	1004
500.786	1029
501.003	1001
501.22	917
501.437	851
501.654	773
501.871	747
502.088	702
502.305	675
502.522	632
502.739	620
502.956	611
503.172	592
503.389	571
503.606	526
503.823	537
504.04	540
504.256	526
504.473	533
504.69	534
504.907	537
505.123	513
505.34	501
505.557	487
505.773	482
505.99	470
506.207	493
506.423	463
506.64	450
506.856	456
507.073	451
507.289	457
507.506	434
507.722	449
507.939	448
508.155	442
508.372	409
508.588	440
508.805	425
509.021	426
509.238	426
509.454	409
509.67	424
509.887	429
510.103	422
510.319	424
510.536	459
510.752	552
510.968	496
511.184	426
511.401	410
511.617	394
511.833	401
512.049	416
512.265	408
512.481	405
512.698	382
512.914	409
513.13	413
513.346	404
513.562	402
513.778	390
513.994	413
514.21	414
514.426	421
514.642	424
514.858	420
515.074	426
515.29	436
515.506	537
515.721	475
515.937	427
516.153	429
516.369	427
516.585	442
516.801	461
517.016	474
517.232	478
517.448	524
517.664	524
517.879	517
518.095	478
518.311	492
518.527	484
518.742	470
518.958	450
519.173	469
519.389	412
519.605	442
519.82	420
520.036	424
520.251	422
520.467	421
520.682	437
520.898	424
521.113	424
521.329	412
521.544	421
521.76	442
521.975	586
522.19	540
522.406	452
522.621	397
522.836	395
523.052	385
523.267	390
523.482	379
523.698	364
523.913	384
524.128	379
524.343	377
524.559	374
524.774	344
524.989	386
525.204	378
525.419	390
525.634	380
525.849	360
526.064	365
526.28	364
526.495	345
526.71	377
526.925	376
527.14	357
527.355	351
527.57	374
527.785	352
527.999	370
528.214	356
528.429	366
528.644	371
528.859	358
529.074	365
529.289	381
529.503	382
529.718	383
529.933	373
530.148	355
530.363	377
530.577	355
530.792	358
531.007	378
531.221	346
531.436	359
531.651	354
531.865	348
532.08	372
532.295	356
532.509	344
532.724	359
532.938	375
533.153	351
533.367	361
533.582	372
533.796	356
534.011	371
534.225	377
534.44	347
534.654	338
534.868	348
535.083	338
535.297	345
535.511	349
535.726	346
535.94	352
536.154	357
536.369	338
536.583	358
536.797	345
537.011	342
537.225	354
537.44	339
537.654	338
537.868	357
538.082	358
538.296	365
538.51	334
538.724	331
538.938	332
539.153	341
539.367	337
539.581	350
539.795	341
540.009	333
540.222	339
540.436	337
540.65	325
540.864	331
541.078	348
541.292	342
541.506	347
541.72	341
541.934	342
542.147	362
542.361	343
542.575	336
542.789	333
543.002	349
543.216	353
543.43	350
543.644	333
543.857	340
544.071	331
544.285	354
544.498	349
544.712	348
544.925	318
545.139	339
545.352	352
545.566	338
545.779	333
545.993	346
546.206	361
546.42	359
546.633	356
546.847	333
547.06	336
547.274	344
547.487	333
547.7	340
547.914	342
548.127	337
548.34	337
548.554	341
548.767	351
548.98	338
549.193	342
549.407	354
549.62	352
549.833	350
550.046	343
550.259	347
550.473	340
550.686	353
550.899	331
551.112	350
551.325	326
551.538	341
551.751	348
551.964	330
552.177	353
552.39	349
552.603	358
552.816	351
553.029	362
553.242	346
553.455	364
553.667	389
553.88	379
554.093	373
554.306	345
554.519	357
554.732	352
554.944	331
555.157	348
555.37	333
555.583	339
555.795	339
556.008	336
556.221	320
556.433	317
556.646	334
556.859	317
557.071	307
557.284	313
557.496	308
557.709	293
557.921	322
558.134	306
558.346	308
558.559	306
558.771	304
558.984	287
559.196	291
559.409	295
559.621	299
559.833	293
560.046	300
560.258	300
560.47	305
560.683	304
560.895	303
561.107	296
561.32	294
561.532	299
561.744	296
561.956	300
562.168	284
562.381	309
562.593	313
562.805	324
563.017	316
563.229	315
563.441	302
563.653	312
563.865	291
564.077	319
564.289	304
564.501	336
564.713	327
564.925	329
565.137	318
565.349	338
565.561	355
565.773	344
565.985	373
566.197	372
566.408	392
566.62	409
566.832	443
567.044	425
567.255	435
567.467	453
567.679	459
567.891	469
568.102	497
568.314	486
568.526	445
568.737	418
568.949	385
569.161	372
569.372	351
569.584	330
569.795	358
570.007	327
570.218	332
570.43	345
570.641	332
570.853	331
571.064	335
571.276	332
571.487	314
571.698	290
571.91	282
572.121	290
572.333	286
572.544	280
572.755	291
572.966	293
573.178	277
573.389	288
573.6	285
573.811	285
574.023	276
574.234	285
574.445	258
574.656	255
574.867	275
575.078	290
575.289	266
575.501	279
575.712	266
575.923	261
576.134	247
576.345	271
576.556	261
576.767	270
576.978	257
577.188	269
577.399	261
577.61	251
577.821	261
578.032	250
578.243	261
578.454	296
578.665	276
578.875	259
579.086	247
579.297	276
579.508	260
579.718	259
579.929	252
580.14	249
580.35	234
580.561	242
580.772	238
580.982	248
581.193	245
581.403	259
581.614	252
581.825	243
582.035	245
582.246	261
582.456	246
582.667	249
582.877	255
583.087	245
583.298	248
583.508	244
583.719	259
583.929	247
584.139	244
584.35	231
584.56	237
584.77	253
584.981	261
585.191	231
585.401	225
585.611	215
585.821	231
586.032	244
586.242	227
586.452	234
586.662	248
586.872	235
587.082	236
587.292	250
587.502	249
587.713	248
587.923	234
588.133	244
588.343	252
588.553	235
588.762	244
588.972	270
589.182	354
589.392	366
589.602	270
589.812	337
590.022	292
590.232	260
590.441	245
590.651	244
590.861	238
591.071	243
591.281	260
591.49	247
591.7	256
591.91	268
592.119	245
592.329	244
592.539	271
592.748	286
592.958	286
593.167	279
593.377	293
593.587	293
593.796	302
594.006	299
594.215	309
594.424	301
594.634	293
594.843	292
595.053	261
595.262	258
595.472	278
595.681	260
595.89	249
596.1	247
596.309	251
596.518	249
596.727	242
596.937	236
597.146	248
597.355	238
597.564	229
597.774	232
597.983	224
598.192	230
598.401	240
598.61	228
598.819	219
599.028	220
599.237	203
599.446	222
599.655	229
599.864	221
600.073	215
600.282	205
600.491	225
600.7	191
600.909	210
601.118	212
601.327	200
601.536	203
601.745	229
601.953	210
602.162	214
602.371	209
602.58	216
602.789	203
602.997	208
603.206	220
603.415	219
603.623	206
603.832	219
604.041	201
604.249	202
604.458	194
604.666	204
604.875	208
605.084	204
605.292	198
605.501	205
605.709	196
605.918	193
606.126	203
606.334	218
606.543	202
606.751	209
606.96	215
607.168	203
607.376	195
607.585	204
607.793	198
608.001	205
608.21	197
608.418	208
608.626	192
608.834	198
609.043	206
609.251	181
609.459	205
609.667	205
609.875	209
610.083	205
610.291	200
610.499	197
610.707	189
610.916	199
611.124	216
611.332	200
611.54	204
611.748	207
611.955	191
612.163	208
612.371	201
612.579	203
612.787	201
612.995	174
613.203	198
613.411	184
613.618	199
613.826	188
614.034	201
614.242	199
614.449	190
614.657	194
614.865	208
615.072	200
615.28	189
615.488	190
615.695	213
615.903	194
616.111	205
616.318	205
616.526	205
616.733	191
616.941	179
617.148	203
617.356	182
617.563	178
617.771	206
617.978	180
618.185	201
618.393	206
618.6	197
618.807	198
619.015	189
619.222	195
619.429	187
619.637	202
619.844	180
620.051	181
620.258	178
620.466	181
620.673	184
620.88	197
621.087	184
621.294	186
621.501	177
621.708	178
621.915	181
622.122	178
622.329	188
622.536	180
622.743	192
622.95	184
623.157	190
623.364	193
623.571	181
623.778	178
623.985	185
624.192	172
624.399	188
624.606	201
624.812	179
625.019	170
625.226	188
625.433	178
625.639	159
625.846	174
626.053	179
626.259	182
626.466	168
626.673	171
626.879	160
627.086	163
627.293	173
627.499	184
627.706	182
627.912	164
628.119	164
628.325	186
628.532	172
628.738	171
628.945	176
629.151	170
629.357	171
629.564	167
629.77	172
629.976	163
630.183	162
630.389	160
630.595	161
630.802	170
631.008	158
631.214	177
631.42	162
631.627	165
631.833	161
632.039	155
632.245	157
632.451	174
632.657	165
632.863	168
633.069	156
633.275	156
633.481	156
633.688	169
633.893	154
634.099	164
634.305	177
634.511	177
634.717	164
634.923	158
635.129	139
635.335	143
635.541	155
635.747	178
635.952	153
636.158	169
636.364	165
636.57	163
636.775	176
636.981	169
637.187	152
637.392	158
637.598	145
637.804	149
638.009	168
638.215	168
638.421	159
638.626	141
638.832	162
639.037	149
639.243	153
639.448	160
639.654	168
639.859	156
640.065	165
640.27	150
640.475	147
640.681	161
640.886	157
641.091	151
641.297	150
641.502	148
641.707	149
641.913	137
642.118	146
642.323	148
642.528	140
642.733	144
642.939	150
643.144	144
643.349	139
643.554	134
643.759	141
643.964	132
644.169	138
644.374	145
644.579	144
644.784	144
644.989	138
645.194	140
645.399	134
645.604	164
645.809	158
646.014	146
646.219	156
646.423	134
646.628	146
646.833	169
647.038	159
647.243	156
647.447	160
647.652	151
647.857	149
648.062	152
648.266	143
648.471	146
648.676	157
648.88	158
649.085	164
649.289	164
649.494	155
649.698	164
649.903	153
650.107	144
650.312	147
650.516	140
650.721	152
650.925	153
651.13	146
651.334	140
651.539	130
651.743	141
651.947	148
652.152	140
652.356	145
652.56	146
652.764	134
652.969	130
653.173	136
653.377	109
653.581	128
653.785	130
653.99	128
654.194	119
654.398	137
654.602	133
654.806	138
655.01	151
655.214	142
655.418	140
655.622	139
655.826	162
656.03	146
656.234	150
656.438	127
656.642	158
656.846	155
657.049	146
657.253	136
657.457	118
657.661	125
657.865	124
658.068	108
658.272	116
658.476	118
658.68	113
658.883	96
659.087	100
659.291	97
659.494	91
659.698	103
659.901	101
660.105	95
660.309	91
660.512	85
660.716	78
660.919	94
661.123	86
661.326	92
661.53	97
661.733	84
661.936	80
662.14	94
662.343	84
662.546	81
662.75	88
662.953	87
663.156	90
663.36	92
663.563	84
663.766	95
663.969	89
664.173	94
664.376	86
664.579	76
664.782	82
664.985	91
665.188	78
665.391	74
665.594	83
665.797	95
666	81
666.203	77
666.406	59
666.609	85
666.812	107
667.015	80
667.218	95
667.421	85
667.624	85
667.827	88
668.03	93
668.232	88
668.435	81
668.638	89
668.841	83
669.043	86
669.246	62
669.449	85
669.651	98
669.854	85
670.057	94
670.259	93
670.462	64
670.665	80
670.867	82
671.07	93
671.272	93
671.475	84
671.677	78
671.88	88
672.082	77
672.284	87
672.487	90
672.689	64
672.892	74
