Data from 1984.PennyLincolnUp.Lamp.En5.5.200Scan.071819.P1_HRD10591_16-57-59-967.txt Node
Date: Thu Jul 18 16:57:59 EDT 2019
User: cochatt
Spectrometer: HR+D1059
Trigger mode: 1
Integration Time (sec): 1.000000E-1
Scans to average: 1
Electric dark correction enabled: true
Nonlinearity correction enabled: false
Boxcar width: 0
XAxis mode: Wavelengths
Number of Pixels in Spectrum: 2048
>>>>>Begin Spectral Data<<<<<
223.165	-22
223.4	-22
223.635	-22
223.869	-9
224.104	-23
224.338	-18
224.573	-10
224.808	-17
225.042	-20
225.277	-4
225.511	-10
225.746	8
225.98	8
226.215	12
226.449	13
226.683	28
226.918	19
227.152	45
227.387	44
227.621	39
227.856	39
228.09	36
228.324	61
228.559	51
228.793	71
229.027	97
229.262	88
229.496	94
229.73	113
229.964	113
230.199	105
230.433	102
230.667	109
230.901	94
231.136	103
231.37	107
231.604	107
231.838	106
232.072	102
232.306	110
232.541	121
232.775	107
233.009	99
233.243	113
233.477	113
233.711	115
233.945	107
234.179	103
234.413	112
234.647	101
234.881	119
235.115	117
235.349	111
235.583	119
235.817	116
236.051	118
236.285	121
236.519	117
236.753	126
236.987	119
237.221	138
237.455	168
237.689	139
237.922	124
238.156	123
238.39	116
238.624	93
238.858	110
239.091	114
239.325	121
239.559	117
239.793	111
240.027	133
240.26	120
240.494	121
240.728	132
240.961	136
241.195	122
241.429	120
241.662	118
241.896	118
242.13	114
242.363	125
242.597	115
242.83	144
243.064	119
243.298	129
243.531	122
243.765	133
243.998	137
244.232	136
244.465	139
244.699	132
244.932	142
245.166	132
245.399	145
245.633	132
245.866	146
246.099	134
246.333	121
246.566	141
246.8	147
247.033	134
247.266	142
247.5	143
247.733	141
247.966	135
248.2	147
248.433	159
248.666	157
248.899	151
249.133	141
249.366	171
249.599	167
249.832	164
250.066	172
250.299	157
250.532	169
250.765	154
250.998	179
251.231	169
251.465	188
251.698	177
251.931	156
252.164	177
252.397	182
252.63	161
252.863	165
253.096	171
253.329	189
253.562	187
253.795	170
254.028	173
254.261	188
254.494	191
254.727	198
254.96	178
255.193	188
255.426	181
255.659	195
255.892	196
256.124	189
256.357	194
256.59	181
256.823	171
257.056	184
257.289	169
257.521	172
257.754	194
257.987	185
258.22	172
258.452	170
258.685	171
258.918	170
259.151	187
259.383	186
259.616	202
259.849	203
260.081	181
260.314	206
260.547	193
260.779	196
261.012	206
261.244	204
261.477	207
261.71	187
261.942	196
262.175	204
262.407	213
262.64	200
262.872	189
263.105	182
263.337	196
263.57	198
263.802	198
264.035	196
264.267	205
264.499	185
264.732	186
264.964	207
265.197	172
265.429	198
265.661	196
265.894	218
266.126	194
266.358	211
266.591	193
266.823	194
267.055	209
267.287	198
267.52	217
267.752	210
267.984	215
268.216	212
268.448	209
268.681	225
268.913	222
269.145	218
269.377	218
269.609	228
269.841	218
270.073	226
270.306	228
270.538	257
270.77	249
271.002	236
271.234	220
271.466	254
271.698	253
271.93	240
272.162	270
272.394	248
272.626	271
272.858	246
273.09	235
273.322	237
273.553	217
273.785	222
274.017	223
274.249	235
274.481	228
274.713	228
274.945	246
275.176	245
275.408	235
275.64	244
275.872	238
276.104	243
276.335	241
276.567	242
276.799	232
277.031	267
277.262	267
277.494	289
277.726	254
277.957	241
278.189	244
278.421	247
278.652	238
278.884	241
279.115	234
279.347	251
279.579	257
279.81	242
280.042	226
280.273	267
280.505	247
280.736	256
280.968	232
281.199	259
281.431	253
281.662	259
281.894	264
282.125	246
282.356	266
282.588	269
282.819	277
283.051	267
283.282	258
283.513	254
283.745	272
283.976	257
284.207	250
284.439	254
284.67	267
284.901	270
285.132	274
285.364	261
285.595	261
285.826	250
286.057	261
286.288	275
286.52	254
286.751	247
286.982	274
287.213	262
287.444	270
287.675	271
287.906	275
288.138	279
288.369	281
288.6	282
288.831	270
289.062	258
289.293	276
289.524	275
289.755	272
289.986	266
290.217	268
290.448	261
290.679	276
290.91	267
291.141	278
291.371	282
291.602	278
291.833	263
292.064	291
292.295	274
292.526	266
292.757	268
292.987	277
293.218	282
293.449	268
293.68	300
293.91	272
294.141	282
294.372	275
294.603	286
294.833	261
295.064	294
295.295	296
295.525	283
295.756	285
295.987	289
296.217	307
296.448	292
296.679	283
296.909	291
297.14	277
297.37	282
297.601	285
297.831	288
298.062	299
298.292	276
298.523	317
298.753	305
298.984	294
299.214	283
299.445	294
299.675	272
299.905	288
300.136	299
300.366	297
300.597	314
300.827	291
301.057	318
301.288	311
301.518	324
301.748	300
301.979	294
302.209	293
302.439	299
302.669	309
302.9	332
303.13	306
303.36	323
303.59	293
303.82	317
304.051	312
304.281	288
304.511	307
304.741	313
304.971	298
305.201	283
305.431	306
305.661	300
305.891	300
306.121	292
306.352	301
306.582	305
306.812	298
307.042	294
307.272	326
307.502	330
307.731	302
307.961	318
308.191	323
308.421	323
308.651	320
308.881	314
309.111	315
309.341	312
309.571	321
309.8	336
310.03	336
310.26	346
310.49	313
310.72	333
310.949	326
311.179	329
311.409	330
311.639	345
311.868	327
312.098	335
312.328	334
312.557	343
312.787	342
313.017	319
313.246	345
313.476	343
313.706	348
313.935	345
314.165	344
314.394	337
314.624	346
314.853	351
315.083	342
315.312	339
315.542	341
315.771	318
316.001	342
316.23	336
316.46	326
316.689	345
316.919	329
317.148	337
317.377	349
317.607	329
317.836	335
318.065	308
318.295	355
318.524	337
318.753	320
318.983	334
319.212	341
319.441	336
319.67	337
319.9	333
320.129	342
320.358	341
320.587	348
320.816	351
321.046	346
321.275	342
321.504	335
321.733	354
321.962	366
322.191	357
322.42	350
322.649	385
322.878	383
323.108	378
323.337	392
323.566	398
323.795	420
324.024	436
324.253	492
324.482	639
324.71	901
324.939	1256
325.168	1089
325.397	640
325.626	482
325.855	415
326.084	408
326.313	389
326.542	397
326.77	405
326.999	476
327.228	602
327.457	852
327.686	980
327.914	707
328.143	482
328.372	464
328.6	472
328.829	445
329.058	448
329.287	433
329.515	411
329.744	414
329.972	410
330.201	441
330.43	438
330.658	452
330.887	449
331.115	449
331.344	413
331.572	395
331.801	421
332.03	426
332.258	423
332.486	408
332.715	393
332.943	429
333.172	436
333.4	457
333.629	465
333.857	467
334.085	467
334.314	443
334.542	474
334.771	479
334.999	454
335.227	427
335.455	429
335.684	406
335.912	427
336.14	414
336.369	413
336.597	407
336.825	426
337.053	425
337.281	399
337.51	392
337.738	383
337.966	385
338.194	389
338.422	385
338.65	386
338.878	392
339.106	386
339.334	383
339.562	379
339.79	378
340.018	389
340.246	388
340.474	373
340.702	369
340.93	375
341.158	395
341.386	390
341.614	380
341.842	399
342.07	385
342.298	392
342.526	376
342.754	380
342.981	365
343.209	379
343.437	385
343.665	379
343.893	422
344.12	428
344.348	409
344.576	398
344.804	392
345.031	394
345.259	374
345.487	374
345.714	394
345.942	346
346.17	361
346.397	360
346.625	355
346.853	360
347.08	346
347.308	371
347.535	360
347.763	378
347.99	356
348.218	350
348.445	358
348.673	350
348.9	375
349.128	365
349.355	350
349.583	326
349.81	369
350.037	360
350.265	367
350.492	346
350.72	353
350.947	340
351.174	338
351.402	360
351.629	348
351.856	349
352.083	369
352.311	337
352.538	346
352.765	350
352.992	378
353.22	353
353.447	333
353.674	334
353.901	362
354.128	348
354.355	346
354.583	339
354.81	350
355.037	335
355.264	348
355.491	355
355.718	344
355.945	351
356.172	342
356.399	348
356.626	326
356.853	338
357.08	330
357.307	334
357.534	343
357.761	343
357.988	340
358.215	355
358.441	332
358.668	344
358.895	333
359.122	347
359.349	347
359.576	348
359.802	354
360.029	362
360.256	371
360.483	365
360.709	373
360.936	351
361.163	347
361.39	355
361.616	356
361.843	343
362.07	342
362.296	351
362.523	366
362.749	344
362.976	360
363.203	357
363.429	340
363.656	349
363.882	343
364.109	353
364.335	344
364.562	341
364.788	335
365.015	345
365.241	343
365.468	353
365.694	343
365.92	357
366.147	333
366.373	343
366.599	341
366.826	327
367.052	332
367.278	343
367.505	337
367.731	334
367.957	347
368.184	335
368.41	351
368.636	343
368.862	344
369.089	340
369.315	328
369.541	349
369.767	349
369.993	349
370.219	336
370.445	341
370.672	343
370.898	332
371.124	331
371.35	344
371.576	349
371.802	337
372.028	347
372.254	330
372.48	345
372.706	347
372.932	345
373.158	366
373.384	355
373.61	357
373.835	377
374.061	346
374.287	343
374.513	356
374.739	376
374.965	373
375.191	375
375.416	351
375.642	344
375.868	356
376.094	358
376.319	359
376.545	360
376.771	369
376.997	351
377.222	343
377.448	344
377.674	331
377.899	342
378.125	331
378.35	351
378.576	347
378.802	326
379.027	352
379.253	337
379.478	338
379.704	339
379.929	355
380.155	358
380.38	338
380.606	349
380.831	347
381.057	344
381.282	339
381.507	352
381.733	341
381.958	350
382.184	335
382.409	362
382.634	358
382.86	349
383.085	367
383.31	365
383.535	357
383.761	385
383.986	376
384.211	377
384.436	389
384.662	363
384.887	377
385.112	386
385.337	378
385.562	387
385.787	392
386.013	417
386.238	388
386.463	394
386.688	398
386.913	402
387.138	387
387.363	383
387.588	400
387.813	369
388.038	398
388.263	404
388.488	395
388.713	380
388.938	385
389.163	389
389.387	365
389.612	383
389.837	386
390.062	394
390.287	380
390.512	365
390.736	393
390.961	378
391.186	390
391.411	407
391.636	412
391.86	422
392.085	421
392.31	411
392.534	421
392.759	426
392.984	418
393.208	416
393.433	393
393.658	390
393.882	409
394.107	398
394.331	399
394.556	432
394.78	391
395.005	394
395.229	409
395.454	397
395.678	432
395.903	425
396.127	445
396.352	438
396.576	393
396.801	395
397.025	415
397.249	433
397.474	420
397.698	434
397.922	414
398.147	443
398.371	446
398.595	453
398.82	444
399.044	466
399.268	511
399.492	574
399.717	607
399.941	621
400.165	612
400.389	578
400.613	520
400.837	509
401.062	461
401.286	466
401.51	460
401.734	463
401.958	470
402.182	458
402.406	493
402.63	462
402.854	468
403.078	483
403.302	483
403.526	497
403.75	524
403.974	497
404.198	505
404.422	494
404.645	505
404.869	506
405.093	521
405.317	517
405.541	551
405.765	503
405.988	503
406.212	489
406.436	518
406.66	516
406.883	528
407.107	553
407.331	561
407.555	633
407.778	621
408.002	572
408.226	551
408.449	524
408.673	525
408.896	513
409.12	535
409.344	548
409.567	499
409.791	505
410.014	498
410.238	486
410.461	469
410.685	481
410.908	475
411.132	518
411.355	526
411.578	482
411.802	492
412.025	479
412.249	508
412.472	515
412.695	501
412.919	484
413.142	490
413.365	478
413.589	466
413.812	468
414.035	452
414.258	441
414.482	441
414.705	455
414.928	476
415.151	460
415.374	451
415.597	440
415.821	427
416.044	452
416.267	451
416.49	441
416.713	451
416.936	443
417.159	452
417.382	451
417.605	465
417.828	469
418.051	476
418.274	481
418.497	461
418.72	468
418.943	479
419.166	482
419.389	503
419.611	492
419.834	479
420.057	486
420.28	464
420.503	470
420.726	455
420.948	470
421.171	482
421.394	502
421.617	478
421.839	455
422.062	453
422.285	466
422.507	509
422.73	525
422.953	544
423.175	501
423.398	498
423.621	486
423.843	500
424.066	471
424.288	493
424.511	504
424.733	535
424.956	562
425.178	562
425.401	556
425.623	556
425.846	482
426.068	461
426.291	466
426.513	455
426.735	483
426.958	470
427.18	509
427.402	573
427.625	647
427.847	571
428.069	525
428.292	471
428.514	434
428.736	433
428.958	443
429.181	422
429.403	417
429.625	428
429.847	455
430.069	485
430.292	488
430.514	446
430.736	430
430.958	420
431.18	433
431.402	417
431.624	402
431.846	434
432.068	434
432.29	425
432.512	422
432.734	428
432.956	414
433.178	430
433.4	426
433.622	423
433.844	435
434.066	428
434.287	430
434.509	434
434.731	440
434.953	436
435.175	477
435.397	472
435.618	462
435.84	490
436.062	505
436.284	555
436.505	481
436.727	469
436.949	454
437.17	435
437.392	427
437.614	423
437.835	425
438.057	475
438.278	528
438.5	535
438.721	591
438.943	580
439.165	471
439.386	464
439.608	450
439.829	447
440.05	469
440.272	486
440.493	467
440.715	455
440.936	434
441.158	432
441.379	419
441.6	441
441.822	471
442.043	482
442.264	524
442.486	528
442.707	483
442.928	469
443.149	472
443.371	481
443.592	501
443.813	539
444.034	599
444.255	549
444.476	493
444.698	484
444.919	524
445.14	631
445.361	521
445.582	483
445.803	513
446.024	565
446.245	558
446.466	517
446.687	468
446.908	477
447.129	453
447.35	430
447.571	431
447.792	413
448.013	410
448.234	416
448.455	444
448.675	524
448.896	569
449.117	490
449.338	489
449.559	532
449.779	599
450	490
450.221	446
450.442	411
450.662	404
450.883	407
451.104	389
451.324	398
451.545	406
451.766	398
451.986	389
452.207	372
452.428	374
452.648	361
452.869	377
453.089	400
453.31	398
453.53	378
453.751	368
453.971	371
454.192	386
454.412	362
454.633	378
454.853	387
455.073	385
455.294	416
455.514	399
455.734	393
455.955	392
456.175	368
456.395	372
456.616	358
456.836	353
457.056	365
457.276	353
457.497	359
457.717	349
457.937	374
458.157	372
458.377	373
458.598	370
458.818	399
459.038	449
459.258	480
459.478	434
459.698	429
459.918	412
460.138	425
460.358	454
460.578	449
460.798	437
461.018	462
461.238	463
461.458	451
461.678	439
461.898	450
462.118	461
462.338	474
462.558	477
462.777	485
462.997	516
463.217	522
463.437	543
463.657	507
463.876	493
464.096	502
464.316	484
464.536	511
464.755	483
464.975	467
465.195	482
465.414	488
465.634	439
465.854	429
466.073	412
466.293	414
466.512	396
466.732	394
466.951	401
467.171	413
467.391	399
467.61	399
467.829	418
468.049	403
468.268	384
468.488	361
468.707	372
468.927	371
469.146	384
469.365	393
469.585	408
469.804	403
470.023	405
470.243	403
470.462	407
470.681	400
470.901	402
471.12	413
471.339	418
471.558	402
471.777	400
471.997	381
472.216	388
472.435	416
472.654	376
472.873	394
473.092	386
473.311	396
473.53	381
473.749	395
473.968	413
474.187	450
474.406	459
474.625	434
474.844	373
475.063	367
475.282	392
475.501	399
475.72	395
475.939	397
476.158	382
476.377	402
476.596	391
476.814	390
477.033	424
477.252	410
477.471	406
477.69	404
477.908	432
478.127	434
478.346	444
478.564	441
478.783	464
479.002	475
479.22	455
479.439	450
479.658	455
479.876	474
480.095	468
480.313	491
480.532	498
480.751	499
480.969	487
481.188	493
481.406	504
481.624	469
481.843	475
482.061	469
482.28	451
482.498	454
482.717	453
482.935	443
483.153	444
483.372	439
483.59	451
483.808	446
484.027	443
484.245	438
484.463	450
484.681	454
484.9	449
485.118	461
485.336	450
485.554	465
485.772	457
485.99	454
486.209	476
486.427	469
486.645	469
486.863	479
487.081	470
487.299	470
487.517	490
487.735	462
487.953	456
488.171	479
488.389	467
488.607	475
488.825	476
489.043	461
489.261	481
489.479	485
489.696	480
489.914	461
490.132	498
490.35	475
490.568	469
490.786	494
491.003	483
491.221	503
491.439	520
491.657	510
491.874	503
492.092	510
492.31	507
492.527	515
492.745	524
492.963	525
493.18	537
493.398	523
493.615	530
493.833	556
494.05	527
494.268	530
494.485	526
494.703	527
494.92	533
495.138	532
495.355	546
495.573	526
495.79	529
496.008	548
496.225	561
496.442	531
496.66	553
496.877	534
497.094	555
497.312	554
497.529	583
497.746	588
497.963	576
498.181	595
498.398	621
498.615	634
498.832	643
499.049	673
499.267	722
499.484	784
499.701	835
499.918	883
500.135	953
500.352	1027
500.569	1050
500.786	1068
501.003	1011
501.22	949
501.437	897
501.654	828
501.871	781
502.088	743
502.305	717
502.522	673
502.739	665
502.956	626
503.172	613
503.389	585
503.606	584
503.823	585
504.04	579
504.256	578
504.473	574
504.69	577
504.907	583
505.123	549
505.34	537
505.557	493
505.773	537
505.99	509
506.207	500
506.423	488
506.64	487
506.856	491
507.073	490
507.289	499
507.506	483
507.722	468
507.939	486
508.155	488
508.372	486
508.588	487
508.805	483
509.021	468
509.238	470
509.454	478
509.67	472
509.887	470
510.103	469
510.319	476
510.536	526
510.752	740
510.968	634
511.184	477
511.401	458
511.617	454
511.833	439
512.049	450
512.265	452
512.481	452
512.698	440
512.914	434
513.13	447
513.346	443
513.562	444
513.778	453
513.994	451
514.21	454
514.426	430
514.642	470
514.858	487
515.074	482
515.29	563
515.506	713
515.721	650
515.937	501
516.153	485
516.369	503
516.585	468
516.801	471
517.016	506
517.232	537
517.448	555
517.664	538
517.879	532
518.095	515
518.311	543
518.527	515
518.742	483
518.958	488
519.173	457
519.389	474
519.605	478
519.82	474
520.036	466
520.251	475
520.467	486
520.682	462
520.898	475
521.113	475
521.329	468
521.544	512
521.76	578
521.975	863
522.19	831
522.406	530
522.621	458
522.836	445
523.052	436
523.267	424
523.482	433
523.698	424
523.913	426
524.128	413
524.343	395
524.559	391
524.774	404
524.989	399
525.204	418
525.419	377
525.634	391
525.849	400
526.064	403
526.28	381
526.495	399
526.71	395
526.925	384
527.14	363
527.355	400
527.57	386
527.785	375
527.999	373
528.214	383
528.429	386
528.644	393
528.859	382
529.074	364
529.289	405
529.503	408
529.718	399
529.933	388
530.148	406
530.363	383
530.577	386
530.792	390
531.007	390
531.221	396
531.436	384
531.651	378
531.865	375
532.08	371
532.295	377
532.509	380
532.724	378
532.938	383
533.153	381
533.367	381
533.582	374
533.796	381
534.011	385
534.225	389
534.44	362
534.654	366
534.868	379
535.083	374
535.297	380
535.511	383
535.726	367
535.94	371
536.154	369
536.369	358
536.583	353
536.797	356
537.011	344
537.225	358
537.44	366
537.654	365
537.868	334
538.082	339
538.296	358
538.51	347
538.724	361
538.938	371
539.153	354
539.367	356
539.581	357
539.795	375
540.009	349
540.222	363
540.436	375
540.65	343
540.864	365
541.078	362
541.292	348
541.506	348
541.72	354
541.934	361
542.147	369
542.361	353
542.575	338
542.789	355
543.002	356
543.216	348
543.43	353
543.644	365
543.857	359
544.071	343
544.285	365
544.498	354
544.712	364
544.925	366
545.139	361
545.352	362
545.566	346
545.779	333
545.993	353
546.206	355
546.42	366
546.633	351
546.847	343
547.06	346
547.274	361
547.487	337
547.7	362
547.914	361
548.127	350
548.34	372
548.554	339
548.767	360
548.98	353
549.193	362
549.407	345
549.62	359
549.833	357
550.046	371
550.259	357
550.473	357
550.686	346
550.899	330
551.112	333
551.325	332
551.538	340
551.751	347
551.964	358
552.177	345
552.39	359
552.603	376
552.816	377
553.029	366
553.242	385
553.455	384
553.667	391
553.88	383
554.093	371
554.306	361
554.519	367
554.732	351
554.944	355
555.157	355
555.37	353
555.583	345
555.795	343
556.008	327
556.221	328
556.433	318
556.646	330
556.859	320
557.071	325
557.284	306
557.496	324
557.709	315
557.921	319
558.134	297
558.346	315
558.559	330
558.771	306
558.984	301
559.196	302
559.409	302
559.621	310
559.833	299
560.046	310
560.258	306
560.47	335
560.683	287
560.895	313
561.107	297
561.32	317
561.532	316
561.744	305
561.956	303
562.168	307
562.381	302
562.593	307
562.805	314
563.017	314
563.229	319
563.441	306
563.653	323
563.865	323
564.077	327
564.289	308
564.501	311
564.713	347
564.925	339
565.137	326
565.349	332
565.561	344
565.773	377
565.985	347
566.197	378
566.408	415
566.62	441
566.832	435
567.044	449
567.255	446
567.467	453
567.679	489
567.891	501
568.102	497
568.314	486
568.526	439
568.737	417
568.949	414
569.161	366
569.372	359
569.584	353
569.795	342
570.007	350
570.218	353
570.43	351
570.641	330
570.853	328
571.064	342
571.276	343
571.487	319
571.698	289
571.91	324
572.121	302
572.333	305
572.544	292
572.755	296
572.966	270
573.178	281
573.389	298
573.6	268
573.811	265
574.023	262
574.234	265
574.445	282
574.656	260
574.867	259
575.078	272
575.289	275
575.501	297
575.712	247
575.923	251
576.134	261
576.345	285
576.556	268
576.767	257
576.978	267
577.188	286
577.399	266
577.61	258
577.821	263
578.032	261
578.243	267
578.454	375
578.665	325
578.875	265
579.086	267
579.297	238
579.508	229
579.718	259
579.929	262
580.14	270
580.35	259
580.561	261
580.772	242
580.982	240
581.193	257
581.403	268
581.614	269
581.825	243
582.035	246
582.246	251
582.456	245
582.667	244
582.877	240
583.087	234
583.298	230
583.508	245
583.719	247
583.929	248
584.139	247
584.35	258
584.56	257
584.77	245
584.981	256
585.191	237
585.401	245
585.611	230
585.821	236
586.032	234
586.242	242
586.452	233
586.662	235
586.872	242
587.082	229
587.292	235
587.502	251
587.713	253
587.923	242
588.133	239
588.343	230
588.553	233
588.762	250
588.972	252
589.182	277
589.392	257
589.602	247
589.812	270
590.022	275
590.232	258
590.441	239
590.651	247
590.861	257
591.071	248
591.281	242
591.49	247
591.7	268
591.91	247
592.119	269
592.329	262
592.539	261
592.748	262
592.958	282
593.167	293
593.377	255
593.587	283
593.796	308
594.006	294
594.215	291
594.424	312
594.634	290
594.843	268
595.053	265
595.262	274
595.472	279
595.681	263
595.89	231
596.1	249
596.309	233
596.518	241
596.727	245
596.937	234
597.146	229
597.355	239
597.564	200
597.774	225
597.983	230
598.192	220
598.401	235
598.61	211
598.819	213
599.028	231
599.237	212
599.446	228
599.655	211
599.864	211
600.073	204
600.282	221
600.491	223
600.7	217
600.909	212
601.118	211
601.327	205
601.536	213
601.745	220
601.953	198
602.162	195
602.371	211
602.58	213
602.789	211
602.997	212
603.206	216
603.415	220
603.623	203
603.832	185
604.041	202
604.249	202
604.458	202
604.666	209
604.875	209
605.084	215
605.292	194
605.501	220
605.709	215
605.918	205
606.126	203
606.334	221
606.543	194
606.751	211
606.96	213
607.168	203
607.376	183
607.585	219
607.793	199
608.001	203
608.21	217
608.418	197
608.626	210
608.834	213
609.043	209
609.251	197
609.459	204
609.667	198
609.875	211
610.083	201
610.291	186
610.499	210
610.707	198
610.916	197
611.124	202
611.332	215
611.54	202
611.748	229
611.955	203
612.163	206
612.371	195
612.579	192
612.787	186
612.995	190
613.203	190
613.411	202
613.618	188
613.826	196
614.034	187
614.242	194
614.449	192
614.657	191
614.865	179
615.072	204
615.28	211
615.488	187
615.695	179
615.903	193
616.111	189
616.318	194
616.526	199
616.733	207
616.941	195
617.148	208
617.356	197
617.563	191
617.771	197
617.978	199
618.185	179
618.393	195
618.6	186
618.807	191
619.015	198
619.222	191
619.429	214
619.637	184
619.844	181
620.051	172
620.258	185
620.466	180
620.673	190
620.88	181
621.087	183
621.294	207
621.501	188
621.708	202
621.915	186
622.122	180
622.329	174
622.536	169
622.743	179
622.95	187
623.157	168
623.364	165
623.571	165
623.778	183
623.985	183
624.192	178
624.399	170
624.606	172
624.812	183
625.019	187
625.226	174
625.433	177
625.639	169
625.846	165
626.053	177
626.259	183
626.466	178
626.673	179
626.879	173
627.086	181
627.293	170
627.499	161
627.706	178
627.912	171
628.119	171
628.325	171
628.532	170
628.738	197
628.945	181
629.151	184
629.357	174
629.564	189
629.77	154
629.976	177
630.183	162
630.389	170
630.595	157
630.802	167
631.008	173
631.214	161
631.42	171
631.627	167
631.833	178
632.039	172
632.245	158
632.451	170
632.657	144
632.863	162
633.069	178
633.275	139
633.481	172
633.688	163
633.893	157
634.099	161
634.305	164
634.511	169
634.717	151
634.923	170
635.129	157
635.335	156
635.541	164
635.747	159
635.952	163
636.158	154
636.364	151
636.57	147
636.775	156
636.981	167
637.187	161
637.392	143
637.598	159
637.804	146
638.009	160
638.215	157
638.421	169
638.626	161
638.832	143
639.037	153
639.243	127
639.448	148
639.654	152
639.859	136
640.065	158
640.27	151
640.475	149
640.681	138
640.886	147
641.091	147
641.297	152
641.502	156
641.707	139
641.913	141
642.118	154
642.323	141
642.528	144
642.733	142
642.939	138
643.144	140
643.349	149
643.554	147
643.759	138
643.964	140
644.169	141
644.374	130
644.579	147
644.784	157
644.989	136
645.194	144
645.399	163
645.604	153
645.809	150
646.014	142
646.219	163
646.423	137
646.628	156
646.833	155
647.038	134
647.243	127
647.447	157
647.652	143
647.857	153
648.062	150
648.266	142
648.471	162
648.676	165
648.88	161
649.085	157
649.289	153
649.494	155
649.698	157
649.903	171
650.107	151
650.312	148
650.516	140
650.721	141
650.925	138
651.13	143
651.334	138
651.539	136
651.743	139
651.947	138
652.152	134
652.356	130
652.56	127
652.764	128
652.969	129
653.173	133
653.377	132
653.581	129
653.785	132
653.99	145
654.194	120
654.398	125
654.602	130
654.806	126
655.01	121
655.214	125
655.418	125
655.622	127
655.826	116
656.03	122
656.234	139
656.438	131
656.642	133
656.846	140
657.049	139
657.253	120
657.457	118
657.661	119
657.865	104
658.068	105
658.272	109
658.476	111
658.68	104
658.883	105
659.087	91
659.291	99
659.494	99
659.698	101
659.901	99
660.105	98
660.309	92
660.512	93
660.716	86
660.919	89
661.123	97
661.326	80
661.53	102
661.733	94
661.936	81
662.14	87
662.343	100
662.546	92
662.75	85
662.953	90
663.156	86
663.36	75
663.563	83
663.766	85
663.969	74
664.173	70
664.376	98
664.579	74
664.782	80
664.985	85
665.188	97
665.391	82
665.594	75
665.797	76
666	94
666.203	95
666.406	93
666.609	82
666.812	81
667.015	86
667.218	79
667.421	90
667.624	79
667.827	74
668.03	79
668.232	93
668.435	82
668.638	92
668.841	76
669.043	82
669.246	93
669.449	89
669.651	79
669.854	86
670.057	83
670.259	75
670.462	76
670.665	82
670.867	85
671.07	74
671.272	86
671.475	82
671.677	89
671.88	86
672.082	85
672.284	100
672.487	79
672.689	94
672.892	81
