Data from 1986.PennyLincolnUp.Lamp.En5.5.200Scan.071819.P2_HRD10591_17-12-57-972.txt Node
Date: Thu Jul 18 17:12:57 EDT 2019
User: cochatt
Spectrometer: HR+D1059
Trigger mode: 1
Integration Time (sec): 1.000000E-1
Scans to average: 1
Electric dark correction enabled: true
Nonlinearity correction enabled: false
Boxcar width: 0
XAxis mode: Wavelengths
Number of Pixels in Spectrum: 2048
>>>>>Begin Spectral Data<<<<<
223.165	-8
223.4	-8
223.635	-8
223.869	-33
224.104	-23
224.338	-20
224.573	-16
224.808	-13
225.042	-22
225.277	12
225.511	-3
225.746	11
225.98	10
226.215	25
226.449	21
226.683	17
226.918	14
227.152	28
227.387	32
227.621	45
227.856	37
228.09	44
228.324	48
228.559	67
228.793	74
229.027	114
229.262	105
229.496	120
229.73	132
229.964	150
230.199	124
230.433	117
230.667	118
230.901	127
231.136	99
231.37	118
231.604	109
231.838	117
232.072	132
232.306	100
232.541	116
232.775	138
233.009	116
233.243	125
233.477	105
233.711	121
233.945	114
234.179	121
234.413	117
234.647	129
234.881	125
235.115	124
235.349	131
235.583	136
235.817	116
236.051	131
236.285	126
236.519	128
236.753	132
236.987	150
237.221	198
237.455	241
237.689	215
237.922	151
238.156	131
238.39	130
238.624	132
238.858	136
239.091	129
239.325	135
239.559	151
239.793	144
240.027	132
240.26	145
240.494	155
240.728	156
240.961	162
241.195	150
241.429	156
241.662	158
241.896	152
242.13	148
242.363	142
242.597	157
242.83	143
243.064	145
243.298	140
243.531	132
243.765	148
243.998	147
244.232	155
244.465	164
244.699	148
244.932	155
245.166	158
245.399	181
245.633	157
245.866	164
246.099	152
246.333	178
246.566	168
246.8	170
247.033	173
247.266	162
247.5	186
247.733	178
247.966	183
248.2	191
248.433	192
248.666	188
248.899	196
249.133	214
249.366	230
249.599	244
249.832	218
250.066	204
250.299	236
250.532	264
250.765	286
250.998	286
251.231	288
251.465	272
251.698	237
251.931	234
252.164	227
252.397	236
252.63	235
252.863	241
253.096	243
253.329	237
253.562	253
253.795	243
254.028	243
254.261	266
254.494	255
254.727	283
254.96	318
255.193	305
255.426	285
255.659	295
255.892	331
256.124	376
256.357	427
256.59	391
256.823	337
257.056	308
257.289	293
257.521	279
257.754	255
257.987	247
258.22	269
258.452	265
258.685	256
258.918	254
259.151	234
259.383	246
259.616	257
259.849	254
260.081	252
260.314	297
260.547	290
260.779	283
261.012	284
261.244	255
261.477	263
261.71	259
261.942	222
262.175	270
262.407	257
262.64	236
262.872	235
263.105	248
263.337	247
263.57	235
263.802	244
264.035	231
264.267	234
264.499	231
264.732	232
264.964	237
265.197	228
265.429	235
265.661	226
265.894	218
266.126	230
266.358	253
266.591	238
266.823	235
267.055	270
267.287	249
267.52	260
267.752	243
267.984	240
268.216	243
268.448	254
268.681	262
268.913	259
269.145	286
269.377	292
269.609	291
269.841	277
270.073	276
270.306	291
270.538	352
270.77	333
271.002	344
271.234	315
271.466	315
271.698	339
271.93	332
272.162	343
272.394	346
272.626	303
272.858	307
273.09	306
273.322	300
273.553	291
273.785	286
274.017	284
274.249	291
274.481	294
274.713	283
274.945	284
275.176	292
275.408	288
275.64	292
275.872	283
276.104	281
276.335	297
276.567	308
276.799	325
277.031	338
277.262	357
277.494	351
277.726	339
277.957	327
278.189	303
278.421	313
278.652	301
278.884	284
279.115	295
279.347	287
279.579	307
279.81	327
280.042	306
280.273	333
280.505	316
280.736	278
280.968	287
281.199	286
281.431	295
281.662	294
281.894	279
282.125	297
282.356	308
282.588	339
282.819	329
283.051	317
283.282	280
283.513	299
283.745	302
283.976	306
284.207	309
284.439	295
284.67	309
284.901	274
285.132	301
285.364	284
285.595	296
285.826	310
286.057	297
286.288	290
286.52	306
286.751	295
286.982	299
287.213	299
287.444	302
287.675	306
287.906	307
288.138	328
288.369	316
288.6	328
288.831	308
289.062	302
289.293	309
289.524	321
289.755	313
289.986	306
290.217	306
290.448	313
290.679	308
290.91	284
291.141	292
291.371	297
291.602	303
291.833	300
292.064	296
292.295	301
292.526	309
292.757	290
292.987	300
293.218	312
293.449	322
293.68	313
293.91	292
294.141	292
294.372	297
294.603	332
294.833	314
295.064	297
295.295	308
295.525	303
295.756	301
295.987	299
296.217	360
296.448	366
296.679	327
296.909	301
297.14	314
297.37	315
297.601	302
297.831	300
298.062	298
298.292	302
298.523	316
298.753	327
298.984	312
299.214	326
299.445	351
299.675	308
299.905	333
300.136	326
300.366	317
300.597	312
300.827	326
301.057	313
301.288	344
301.518	351
301.748	320
301.979	329
302.209	331
302.439	334
302.669	322
302.9	328
303.13	315
303.36	335
303.59	341
303.82	352
304.051	347
304.281	322
304.511	323
304.741	324
304.971	314
305.201	339
305.431	339
305.661	333
305.891	325
306.121	330
306.352	333
306.582	334
306.812	339
307.042	328
307.272	351
307.502	344
307.731	356
307.961	357
308.191	338
308.421	352
308.651	344
308.881	359
309.111	350
309.341	362
309.571	358
309.8	379
310.03	374
310.26	398
310.49	397
310.72	388
310.949	404
311.179	411
311.409	401
311.639	394
311.868	394
312.098	389
312.328	399
312.557	411
312.787	424
313.017	424
313.246	422
313.476	405
313.706	395
313.935	407
314.165	416
314.394	418
314.624	411
314.853	390
315.083	413
315.312	391
315.542	387
315.771	377
316.001	389
316.23	397
316.46	397
316.689	391
316.919	395
317.148	418
317.377	402
317.607	394
317.836	414
318.065	407
318.295	391
318.524	413
318.753	408
318.983	400
319.212	406
319.441	424
319.67	434
319.9	396
320.129	413
320.358	392
320.587	390
320.816	423
321.046	414
321.275	415
321.504	424
321.733	428
321.962	426
322.191	469
322.42	446
322.649	477
322.878	490
323.108	509
323.337	529
323.566	563
323.795	585
324.024	649
324.253	776
324.482	1114
324.71	1647
324.939	2410
325.168	2114
325.397	1155
325.626	770
325.855	650
326.084	624
326.313	603
326.542	590
326.77	612
326.999	746
327.228	1000
327.457	1538
327.686	1866
327.914	1296
328.143	934
328.372	887
328.6	815
328.829	708
329.058	730
329.287	737
329.515	698
329.744	700
329.972	767
330.201	908
330.43	1070
330.658	985
330.887	827
331.115	756
331.344	639
331.572	607
331.801	602
332.03	585
332.258	554
332.486	537
332.715	544
332.943	542
333.172	586
333.4	567
333.629	638
333.857	694
334.085	763
334.314	917
334.542	1103
334.771	1232
334.999	903
335.227	694
335.455	605
335.684	552
335.912	536
336.14	501
336.369	515
336.597	508
336.825	514
337.053	498
337.281	471
337.51	467
337.738	468
337.966	478
338.194	464
338.422	465
338.65	465
338.878	447
339.106	432
339.334	448
339.562	441
339.79	442
340.018	454
340.246	451
340.474	448
340.702	454
340.93	440
341.158	429
341.386	456
341.614	447
341.842	442
342.07	433
342.298	435
342.526	432
342.754	422
342.981	439
343.209	424
343.437	418
343.665	416
343.893	431
344.12	440
344.348	421
344.576	431
344.804	421
345.031	446
345.259	446
345.487	448
345.714	433
345.942	426
346.17	420
346.397	410
346.625	443
346.853	424
347.08	422
347.308	446
347.535	428
347.763	434
347.99	445
348.218	440
348.445	434
348.673	427
348.9	436
349.128	427
349.355	415
349.583	392
349.81	396
350.037	405
350.265	397
350.492	395
350.72	405
350.947	395
351.174	413
351.402	419
351.629	429
351.856	409
352.083	414
352.311	440
352.538	424
352.765	431
352.992	413
353.22	418
353.447	417
353.674	419
353.901	411
354.128	407
354.355	388
354.583	392
354.81	404
355.037	398
355.264	389
355.491	393
355.718	350
355.945	384
356.172	388
356.399	395
356.626	387
356.853	387
357.08	377
357.307	389
357.534	381
357.761	377
357.988	380
358.215	404
358.441	383
358.668	386
358.895	386
359.122	399
359.349	399
359.576	392
359.802	442
360.029	456
360.256	482
360.483	447
360.709	443
360.936	450
361.163	426
361.39	408
361.616	417
361.843	404
362.07	402
362.296	415
362.523	400
362.749	412
362.976	395
363.203	403
363.429	383
363.656	406
363.882	415
364.109	379
364.335	384
364.562	392
364.788	377
365.015	399
365.241	403
365.468	399
365.694	396
365.92	398
366.147	398
366.373	376
366.599	384
366.826	389
367.052	378
367.278	394
367.505	376
367.731	384
367.957	398
368.184	380
368.41	387
368.636	394
368.862	406
369.089	390
369.315	372
369.541	383
369.767	398
369.993	387
370.219	387
370.445	398
370.672	372
370.898	390
371.124	377
371.35	394
371.576	400
371.802	382
372.028	382
372.254	384
372.48	384
372.706	376
372.932	374
373.158	372
373.384	377
373.61	369
373.835	392
374.061	388
374.287	395
374.513	395
374.739	399
374.965	386
375.191	374
375.416	380
375.642	380
375.868	383
376.094	398
376.319	390
376.545	372
376.771	370
376.997	371
377.222	382
377.448	364
377.674	378
377.899	379
378.125	349
378.35	375
378.576	363
378.802	368
379.027	368
379.253	380
379.478	374
379.704	376
379.929	376
380.155	383
380.38	370
380.606	371
380.831	375
381.057	379
381.282	367
381.507	360
381.733	391
381.958	382
382.184	381
382.409	387
382.634	357
382.86	400
383.085	392
383.31	384
383.535	374
383.761	377
383.986	367
384.211	372
384.436	398
384.662	359
384.887	378
385.112	394
385.337	383
385.562	378
385.787	397
386.013	414
386.238	404
386.463	404
386.688	383
386.913	405
387.138	395
387.363	390
387.588	384
387.813	398
388.038	378
388.263	371
388.488	397
388.713	382
388.938	395
389.163	408
389.387	394
389.612	384
389.837	395
390.062	376
390.287	410
390.512	388
390.736	403
390.961	395
391.186	400
391.411	391
391.636	407
391.86	411
392.085	412
392.31	382
392.534	418
392.759	407
392.984	400
393.208	386
393.433	389
393.658	382
393.882	380
394.107	393
394.331	382
394.556	390
394.78	377
395.005	390
395.229	386
395.454	397
395.678	405
395.903	408
396.127	418
396.352	441
396.576	403
396.801	425
397.025	399
397.249	420
397.474	420
397.698	424
397.922	420
398.147	432
398.371	438
398.595	432
398.82	437
399.044	446
399.268	440
399.492	454
399.717	477
399.941	491
400.165	516
400.389	537
400.613	496
400.837	479
401.062	460
401.286	450
401.51	442
401.734	446
401.958	421
402.182	455
402.406	440
402.63	495
402.854	461
403.078	460
403.302	474
403.526	454
403.75	458
403.974	457
404.198	462
404.422	500
404.645	502
404.869	528
405.093	580
405.317	637
405.541	664
405.765	602
405.988	546
406.212	555
406.436	549
406.66	546
406.883	518
407.107	535
407.331	570
407.555	636
407.778	632
408.002	572
408.226	530
408.449	524
408.673	506
408.896	548
409.12	587
409.344	528
409.567	490
409.791	486
410.014	472
410.238	478
410.461	478
410.685	492
410.908	510
411.132	495
411.355	562
411.578	554
411.802	512
412.025	512
412.249	549
412.472	578
412.695	648
412.919	662
413.142	597
413.365	559
413.589	510
413.812	498
414.035	493
414.258	486
414.482	481
414.705	459
414.928	453
415.151	474
415.374	469
415.597	468
415.821	442
416.044	456
416.267	443
416.49	458
416.713	441
416.936	475
417.159	446
417.382	463
417.605	470
417.828	478
418.051	504
418.274	460
418.497	466
418.72	447
418.943	443
419.166	472
419.389	501
419.611	485
419.834	515
420.057	525
420.28	551
420.503	564
420.726	554
420.948	574
421.171	580
421.394	584
421.617	496
421.839	491
422.062	489
422.285	514
422.507	555
422.73	623
422.953	595
423.175	536
423.398	513
423.621	481
423.843	503
424.066	524
424.288	512
424.511	533
424.733	580
424.956	650
425.178	638
425.401	643
425.623	654
425.846	569
426.068	528
426.291	509
426.513	529
426.735	541
426.958	553
427.18	642
427.402	779
427.625	838
427.847	785
428.069	732
428.292	655
428.514	566
428.736	538
428.958	519
429.181	487
429.403	494
429.625	489
429.847	541
430.069	570
430.292	587
430.514	495
430.736	491
430.958	489
431.18	442
431.402	463
431.624	442
431.846	459
432.068	445
432.29	454
432.512	447
432.734	443
432.956	450
433.178	463
433.4	477
433.622	456
433.844	438
434.066	440
434.287	457
434.509	448
434.731	446
434.953	462
435.175	459
435.397	503
435.618	529
435.84	572
436.062	644
436.284	699
436.505	579
436.727	548
436.949	484
437.17	504
437.392	476
437.614	479
437.835	536
438.057	625
438.278	722
438.5	716
438.721	783
438.943	760
439.165	577
439.386	528
439.608	541
439.829	512
440.05	562
440.272	633
440.493	546
440.715	514
440.936	478
441.158	492
441.379	499
441.6	495
441.822	515
442.043	538
442.264	640
442.486	670
442.707	572
442.928	535
443.149	555
443.371	565
443.592	598
443.813	684
444.034	731
444.255	632
444.476	539
444.698	514
444.919	506
445.14	592
445.361	566
445.582	548
445.803	608
446.024	712
446.245	745
446.466	685
446.687	568
446.908	530
447.129	485
447.35	489
447.571	485
447.792	467
448.013	484
448.234	512
448.455	546
448.675	670
448.896	758
449.117	640
449.338	626
449.559	710
449.779	797
450	662
450.221	559
450.442	501
450.662	494
450.883	496
451.104	505
451.324	477
451.545	467
451.766	440
451.986	438
452.207	431
452.428	420
452.648	452
452.869	429
453.089	447
453.31	456
453.53	435
453.751	431
453.971	437
454.192	442
454.412	444
454.633	449
454.853	430
455.073	428
455.294	480
455.514	511
455.734	495
455.955	423
456.175	416
456.395	416
456.616	391
456.836	404
457.056	386
457.276	408
457.497	388
457.717	407
457.937	409
458.157	407
458.377	408
458.598	455
458.818	476
459.038	589
459.258	616
459.478	528
459.698	452
459.918	427
460.138	438
460.358	404
460.578	433
460.798	425
461.018	434
461.238	456
461.458	431
461.678	424
461.898	434
462.118	434
462.338	441
462.558	446
462.777	434
462.997	435
463.217	441
463.437	455
463.657	436
463.876	444
464.096	461
464.316	446
464.536	465
464.755	474
464.975	474
465.195	536
465.414	592
465.634	514
465.854	471
466.073	457
466.293	460
466.512	452
466.732	444
466.951	444
467.171	434
467.391	426
467.61	439
467.829	475
468.049	500
468.268	569
468.488	504
468.707	466
468.927	448
469.146	453
469.365	442
469.585	443
469.804	454
470.023	460
470.243	464
470.462	448
470.681	475
470.901	473
471.12	467
471.339	462
471.558	466
471.777	459
471.997	488
472.216	562
472.435	822
472.654	770
472.873	608
473.092	542
473.311	546
473.53	511
473.749	494
473.968	552
474.187	634
474.406	666
474.625	547
474.844	511
475.063	483
475.282	469
475.501	470
475.72	496
475.939	462
476.158	504
476.377	466
476.596	465
476.814	485
477.033	492
477.252	489
477.471	494
477.69	500
477.908	491
478.127	509
478.346	493
478.564	489
478.783	503
479.002	514
479.22	500
479.439	548
479.658	556
479.876	548
480.095	594
480.313	603
480.532	583
480.751	627
480.969	699
481.188	1081
481.406	1378
481.624	943
481.843	760
482.061	700
482.28	662
482.498	630
482.717	616
482.935	610
483.153	592
483.372	575
483.59	595
483.808	571
484.027	568
484.245	564
484.463	572
484.681	584
484.9	574
485.118	592
485.336	565
485.554	580
485.772	584
485.99	580
486.209	565
486.427	574
486.645	589
486.863	616
487.081	628
487.299	603
487.517	604
487.735	604
487.953	600
488.171	610
488.389	617
488.607	607
488.825	599
489.043	621
489.261	600
489.479	620
489.696	634
489.914	615
490.132	637
490.35	662
490.568	659
490.786	684
491.003	675
491.221	716
491.439	710
491.657	714
491.874	725
492.092	770
492.31	744
492.527	729
492.745	763
492.963	778
493.18	786
493.398	760
493.615	738
493.833	748
494.05	750
494.268	769
494.485	740
494.703	767
494.92	764
495.138	750
495.355	742
495.573	735
495.79	741
496.008	743
496.225	711
496.442	724
496.66	718
496.877	714
497.094	750
497.312	736
497.529	725
497.746	722
497.963	758
498.181	735
498.398	743
498.615	761
498.832	748
499.049	757
499.267	759
499.484	752
499.701	772
499.918	809
500.135	816
500.352	846
500.569	857
500.786	883
501.003	886
501.22	838
501.437	845
501.654	824
501.871	847
502.088	796
502.305	770
502.522	776
502.739	738
502.956	733
503.172	721
503.389	721
503.606	714
503.823	745
504.04	686
504.256	687
504.473	682
504.69	665
504.907	692
505.123	654
505.34	679
505.557	656
505.773	646
505.99	655
506.207	642
506.423	676
506.64	675
506.856	680
507.073	641
507.289	645
507.506	661
507.722	667
507.939	657
508.155	646
508.372	638
508.588	634
508.805	629
509.021	644
509.238	648
509.454	672
509.67	642
509.887	634
510.103	661
510.319	644
510.536	729
510.752	1222
510.968	1033
511.184	692
511.401	646
511.617	641
511.833	659
512.049	681
512.265	668
512.481	664
512.698	665
512.914	662
513.13	653
513.346	654
513.562	612
513.778	607
513.994	633
514.21	609
514.426	673
514.642	693
514.858	731
515.074	773
515.29	870
515.506	1274
515.721	1045
515.937	755
516.153	688
516.369	636
516.585	632
516.801	613
517.016	615
517.232	600
517.448	607
517.664	616
517.879	609
518.095	613
518.311	592
518.527	604
518.742	599
518.958	597
519.173	575
519.389	597
519.605	580
519.82	600
520.036	631
520.251	634
520.467	636
520.682	693
520.898	659
521.113	675
521.329	740
521.544	839
521.76	1034
521.975	1684
522.19	1662
522.406	926
522.621	706
522.836	646
523.052	607
523.267	592
523.482	565
523.698	557
523.913	568
524.128	572
524.343	557
524.559	522
524.774	518
524.989	512
525.204	545
525.419	557
525.634	521
525.849	492
526.064	483
526.28	491
526.495	512
526.71	495
526.925	498
527.14	478
527.355	482
527.57	500
527.785	480
527.999	473
528.214	483
528.429	473
528.644	478
528.859	488
529.074	490
529.289	524
529.503	576
529.718	574
529.933	566
530.148	500
530.363	481
530.577	490
530.792	476
531.007	490
531.221	476
531.436	468
531.651	484
531.865	470
532.08	430
532.295	463
532.509	452
532.724	459
532.938	459
533.153	469
533.367	459
533.582	464
533.796	457
534.011	458
534.225	439
534.44	438
534.654	448
534.868	448
535.083	456
535.297	473
535.511	471
535.726	474
535.94	455
536.154	462
536.369	442
536.583	452
536.797	442
537.011	415
537.225	444
537.44	445
537.654	427
537.868	446
538.082	442
538.296	453
538.51	470
538.724	448
538.938	449
539.153	444
539.367	446
539.581	462
539.795	445
540.009	448
540.222	439
540.436	426
540.65	445
540.864	439
541.078	452
541.292	458
541.506	461
541.72	428
541.934	439
542.147	444
542.361	425
542.575	441
542.789	431
543.002	429
543.216	430
543.43	467
543.644	451
543.857	433
544.071	426
544.285	437
544.498	422
544.712	412
544.925	437
545.139	415
545.352	423
545.566	423
545.779	404
545.993	423
546.206	422
546.42	428
546.633	417
546.847	414
547.06	429
547.274	408
547.487	407
547.7	404
547.914	420
548.127	396
548.34	389
548.554	426
548.767	418
548.98	415
549.193	410
549.407	405
549.62	421
549.833	399
550.046	392
550.259	396
550.473	407
550.686	405
550.899	422
551.112	404
551.325	405
551.538	416
551.751	398
551.964	417
552.177	394
552.39	388
552.603	410
552.816	407
553.029	388
553.242	408
553.455	424
553.667	429
553.88	422
554.093	423
554.306	432
554.519	426
554.732	415
554.944	407
555.157	387
555.37	403
555.583	402
555.795	391
556.008	390
556.221	379
556.433	379
556.646	382
556.859	374
557.071	369
557.284	371
557.496	374
557.709	395
557.921	370
558.134	389
558.346	355
558.559	358
558.771	351
558.984	368
559.196	358
559.409	361
559.621	384
559.833	368
560.046	372
560.258	374
560.47	374
560.683	375
560.895	362
561.107	380
561.32	367
561.532	374
561.744	362
561.956	365
562.168	361
562.381	375
562.593	365
562.805	367
563.017	347
563.229	358
563.441	370
563.653	370
563.865	361
564.077	364
564.289	364
564.501	381
564.713	372
564.925	375
565.137	371
565.349	367
565.561	378
565.773	382
565.985	386
566.197	394
566.408	377
566.62	400
566.832	400
567.044	421
567.255	404
567.467	424
567.679	404
567.891	402
568.102	406
568.314	415
568.526	399
568.737	392
568.949	375
569.161	386
569.372	380
569.584	376
569.795	364
570.007	367
570.218	410
570.43	392
570.641	380
570.853	352
571.064	331
571.276	346
571.487	339
571.698	343
571.91	332
572.121	353
572.333	344
572.544	335
572.755	334
572.966	334
573.178	315
573.389	312
573.6	317
573.811	320
574.023	332
574.234	315
574.445	322
574.656	311
574.867	325
575.078	315
575.289	324
575.501	320
575.712	325
575.923	326
576.134	303
576.345	322
576.556	314
576.767	296
576.978	315
577.188	326
577.399	319
577.61	327
577.821	301
578.032	321
578.243	347
578.454	552
578.665	434
578.875	328
579.086	318
579.297	302
579.508	311
579.718	322
579.929	300
580.14	301
580.35	307
580.561	290
580.772	308
580.982	304
581.193	288
581.403	297
581.614	284
581.825	329
582.035	298
582.246	304
582.456	290
582.667	280
582.877	281
583.087	283
583.298	296
583.508	291
583.719	280
583.929	282
584.139	292
584.35	306
584.56	293
584.77	302
584.981	292
585.191	287
585.401	291
585.611	296
585.821	294
586.032	282
586.242	289
586.452	288
586.662	294
586.872	279
587.082	293
587.292	292
587.502	291
587.713	290
587.923	277
588.133	288
588.343	276
588.553	289
588.762	296
588.972	301
589.182	293
589.392	286
589.602	304
589.812	273
590.022	284
590.232	278
590.441	272
590.651	278
590.861	298
591.071	284
591.281	270
591.49	283
591.7	278
591.91	284
592.119	264
592.329	280
592.539	296
592.748	300
592.958	290
593.167	282
593.377	272
593.587	290
593.796	286
594.006	278
594.215	276
594.424	284
594.634	278
594.843	260
595.053	272
595.262	280
595.472	272
595.681	280
595.89	294
596.1	282
596.309	282
596.518	269
596.727	264
596.937	279
597.146	283
597.355	259
597.564	278
597.774	258
597.983	247
598.192	271
598.401	259
598.61	252
598.819	268
599.028	243
599.237	260
599.446	262
599.655	245
599.864	256
600.073	269
600.282	250
600.491	251
600.7	249
600.909	247
601.118	250
601.327	240
601.536	255
601.745	264
601.953	257
602.162	252
602.371	266
602.58	234
602.789	246
602.997	239
603.206	251
603.415	239
603.623	240
603.832	249
604.041	245
604.249	246
604.458	232
604.666	240
604.875	238
605.084	259
605.292	236
605.501	247
605.709	242
605.918	239
606.126	238
606.334	229
606.543	258
606.751	268
606.96	237
607.168	230
607.376	226
607.585	261
607.793	258
608.001	248
608.21	247
608.418	248
608.626	248
608.834	250
609.043	237
609.251	244
609.459	252
609.667	229
609.875	256
610.083	242
610.291	230
610.499	250
610.707	238
610.916	240
611.124	248
611.332	253
611.54	242
611.748	228
611.955	258
612.163	231
612.371	228
612.579	232
612.787	243
612.995	233
613.203	234
613.411	231
613.618	217
613.826	236
614.034	236
614.242	228
614.449	221
614.657	216
614.865	225
615.072	231
615.28	234
615.488	228
615.695	215
615.903	229
616.111	243
616.318	247
616.526	244
616.733	234
616.941	212
617.148	228
617.356	217
617.563	233
617.771	233
617.978	238
618.185	224
618.393	237
618.6	236
618.807	223
619.015	227
619.222	208
619.429	232
619.637	243
619.844	216
620.051	233
620.258	220
620.466	234
620.673	214
620.88	218
621.087	214
621.294	209
621.501	231
621.708	230
621.915	223
622.122	199
622.329	204
622.536	216
622.743	218
622.95	202
623.157	215
623.364	206
623.571	201
623.778	203
623.985	206
624.192	218
624.399	194
624.606	205
624.812	205
625.019	221
625.226	221
625.433	214
625.639	213
625.846	204
626.053	208
626.259	207
626.466	213
626.673	208
626.879	198
627.086	205
627.293	189
627.499	209
627.706	203
627.912	198
628.119	218
628.325	196
628.532	179
628.738	194
628.945	218
629.151	199
629.357	222
629.564	203
629.77	185
629.976	188
630.183	191
630.389	192
630.595	192
630.802	195
631.008	183
631.214	182
631.42	194
631.627	200
631.833	196
632.039	196
632.245	194
632.451	188
632.657	193
632.863	199
633.069	192
633.275	192
633.481	178
633.688	177
633.893	190
634.099	199
634.305	180
634.511	191
634.717	192
634.923	168
635.129	182
635.335	196
635.541	194
635.747	198
635.952	187
636.158	196
636.364	205
636.57	265
636.775	220
636.981	219
637.187	195
637.392	195
637.598	191
637.804	166
638.009	196
638.215	187
638.421	193
638.626	173
638.832	178
639.037	170
639.243	180
639.448	176
639.654	184
639.859	187
640.065	156
640.27	184
640.475	169
640.681	159
640.886	166
641.091	176
641.297	173
641.502	171
641.707	162
641.913	154
642.118	158
642.323	174
642.528	170
642.733	156
642.939	165
643.144	160
643.349	182
643.554	166
643.759	163
643.964	160
644.169	163
644.374	170
644.579	166
644.784	175
644.989	167
645.194	175
645.399	149
645.604	147
645.809	170
646.014	153
646.219	165
646.423	155
646.628	174
646.833	167
647.038	170
647.243	181
647.447	166
647.652	180
647.857	149
648.062	163
648.266	154
648.471	159
648.676	163
648.88	165
649.085	172
649.289	166
649.494	159
649.698	191
649.903	190
650.107	152
650.312	159
650.516	155
650.721	155
650.925	146
651.13	151
651.334	150
651.539	143
651.743	158
651.947	148
652.152	157
652.356	142
652.56	146
652.764	136
652.969	134
653.173	144
653.377	130
653.581	134
653.785	124
653.99	123
654.194	127
654.398	131
654.602	135
654.806	130
655.01	136
655.214	130
655.418	134
655.622	126
655.826	128
656.03	131
656.234	123
656.438	130
656.642	127
656.846	121
657.049	125
657.253	121
657.457	112
657.661	116
657.865	120
658.068	115
658.272	101
658.476	89
658.68	116
658.883	100
659.087	102
659.291	107
659.494	108
659.698	107
659.901	93
660.105	94
660.309	102
660.512	101
660.716	106
660.919	104
661.123	91
661.326	91
661.53	84
661.733	91
661.936	85
662.14	86
662.343	96
662.546	79
662.75	90
662.953	92
663.156	98
663.36	88
663.563	87
663.766	95
663.969	97
664.173	80
664.376	89
664.579	81
664.782	86
664.985	87
665.188	80
665.391	87
665.594	79
665.797	91
666	103
666.203	82
666.406	74
666.609	101
666.812	85
667.015	76
667.218	91
667.421	67
667.624	88
667.827	86
668.03	91
668.232	84
668.435	90
668.638	78
668.841	85
669.043	84
669.246	84
669.449	87
669.651	94
669.854	76
670.057	83
670.259	84
670.462	92
670.665	78
670.867	99
671.07	83
671.272	68
671.475	95
671.677	88
671.88	96
672.082	83
672.284	70
672.487	90
672.689	80
672.892	82
