Data from 1986.PennyLincolnUp.Lamp.En5.5.200Scan.071819.P2_HRD10591_17-11-31-973.txt Node
Date: Thu Jul 18 17:11:31 EDT 2019
User: cochatt
Spectrometer: HR+D1059
Trigger mode: 1
Integration Time (sec): 1.000000E-1
Scans to average: 1
Electric dark correction enabled: true
Nonlinearity correction enabled: false
Boxcar width: 0
XAxis mode: Wavelengths
Number of Pixels in Spectrum: 2048
>>>>>Begin Spectral Data<<<<<
223.165	-10
223.4	-10
223.635	-10
223.869	-6
224.104	-15
224.338	-16
224.573	-19
224.808	-17
225.042	-9
225.277	-8
225.511	-12
225.746	11
225.98	5
226.215	11
226.449	23
226.683	22
226.918	16
227.152	24
227.387	31
227.621	46
227.856	35
228.09	35
228.324	52
228.559	51
228.793	58
229.027	79
229.262	112
229.496	110
229.73	130
229.964	164
230.199	126
230.433	124
230.667	120
230.901	114
231.136	118
231.37	122
231.604	124
231.838	123
232.072	105
232.306	118
232.541	128
232.775	107
233.009	118
233.243	128
233.477	112
233.711	111
233.945	114
234.179	120
234.413	119
234.647	115
234.881	83
235.115	124
235.349	122
235.583	118
235.817	125
236.051	128
236.285	126
236.519	123
236.753	124
236.987	139
237.221	205
237.455	242
237.689	206
237.922	146
238.156	154
238.39	131
238.624	121
238.858	132
239.091	130
239.325	124
239.559	134
239.793	135
240.027	141
240.26	139
240.494	167
240.728	159
240.961	159
241.195	138
241.429	154
241.662	133
241.896	110
242.13	148
242.363	127
242.597	132
242.83	138
243.064	142
243.298	150
243.531	134
243.765	145
243.998	146
244.232	129
244.465	162
244.699	140
244.932	138
245.166	138
245.399	143
245.633	154
245.866	168
246.099	158
246.333	163
246.566	148
246.8	154
247.033	150
247.266	163
247.5	173
247.733	182
247.966	182
248.2	179
248.433	178
248.666	193
248.899	199
249.133	207
249.366	221
249.599	212
249.832	197
250.066	199
250.299	213
250.532	210
250.765	231
250.998	257
251.231	263
251.465	238
251.698	222
251.931	212
252.164	195
252.397	213
252.63	212
252.863	227
253.096	227
253.329	242
253.562	240
253.795	243
254.028	247
254.261	226
254.494	230
254.727	280
254.96	312
255.193	321
255.426	275
255.659	278
255.892	279
256.124	287
256.357	308
256.59	292
256.823	268
257.056	248
257.289	233
257.521	240
257.754	231
257.987	233
258.22	240
258.452	203
258.685	231
258.918	232
259.151	237
259.383	241
259.616	239
259.849	240
260.081	244
260.314	264
260.547	282
260.779	251
261.012	233
261.244	246
261.477	229
261.71	240
261.942	248
262.175	265
262.407	266
262.64	235
262.872	231
263.105	244
263.337	230
263.57	211
263.802	207
264.035	225
264.267	206
264.499	223
264.732	203
264.964	215
265.197	215
265.429	228
265.661	211
265.894	218
266.126	222
266.358	203
266.591	213
266.823	219
267.055	222
267.287	220
267.52	221
267.752	222
267.984	211
268.216	234
268.448	245
268.681	233
268.913	258
269.145	260
269.377	294
269.609	287
269.841	268
270.073	284
270.306	309
270.538	326
270.77	336
271.002	304
271.234	314
271.466	311
271.698	330
271.93	335
272.162	346
272.394	326
272.626	326
272.858	310
273.09	296
273.322	299
273.553	273
273.785	274
274.017	275
274.249	275
274.481	306
274.713	291
274.945	282
275.176	282
275.408	280
275.64	258
275.872	267
276.104	278
276.335	272
276.567	289
276.799	318
277.031	325
277.262	330
277.494	341
277.726	313
277.957	292
278.189	296
278.421	284
278.652	278
278.884	274
279.115	272
279.347	292
279.579	289
279.81	290
280.042	277
280.273	276
280.505	279
280.736	257
280.968	262
281.199	265
281.431	265
281.662	261
281.894	264
282.125	258
282.356	294
282.588	311
282.819	321
283.051	290
283.282	256
283.513	272
283.745	266
283.976	275
284.207	270
284.439	279
284.67	275
284.901	282
285.132	272
285.364	258
285.595	249
285.826	278
286.057	261
286.288	280
286.52	283
286.751	289
286.982	267
287.213	269
287.444	280
287.675	282
287.906	297
288.138	298
288.369	303
288.6	324
288.831	300
289.062	304
289.293	308
289.524	292
289.755	279
289.986	272
290.217	293
290.448	283
290.679	280
290.91	262
291.141	264
291.371	287
291.602	279
291.833	279
292.064	272
292.295	258
292.526	266
292.757	281
292.987	269
293.218	263
293.449	286
293.68	277
293.91	279
294.141	272
294.372	262
294.603	286
294.833	292
295.064	279
295.295	287
295.525	272
295.756	285
295.987	314
296.217	320
296.448	339
296.679	297
296.909	301
297.14	287
297.37	285
297.601	287
297.831	274
298.062	291
298.292	310
298.523	306
298.753	295
298.984	289
299.214	300
299.445	295
299.675	288
299.905	289
300.136	291
300.366	298
300.597	307
300.827	304
301.057	309
301.288	316
301.518	314
301.748	297
301.979	309
302.209	313
302.439	315
302.669	325
302.9	298
303.13	324
303.36	318
303.59	339
303.82	339
304.051	332
304.281	315
304.511	308
304.741	320
304.971	327
305.201	327
305.431	309
305.661	314
305.891	290
306.121	314
306.352	308
306.582	327
306.812	327
307.042	295
307.272	318
307.502	322
307.731	330
307.961	309
308.191	324
308.421	326
308.651	334
308.881	326
309.111	338
309.341	355
309.571	362
309.8	350
310.03	361
310.26	376
310.49	378
310.72	396
310.949	406
311.179	405
311.409	383
311.639	380
311.868	382
312.098	394
312.328	383
312.557	410
312.787	428
313.017	419
313.246	402
313.476	381
313.706	378
313.935	382
314.165	387
314.394	404
314.624	387
314.853	393
315.083	390
315.312	373
315.542	352
315.771	380
316.001	350
316.23	356
316.46	387
316.689	370
316.919	371
317.148	383
317.377	378
317.607	369
317.836	369
318.065	386
318.295	357
318.524	386
318.753	367
318.983	376
319.212	375
319.441	385
319.67	386
319.9	366
320.129	379
320.358	382
320.587	386
320.816	382
321.046	417
321.275	407
321.504	396
321.733	411
321.962	400
322.191	440
322.42	434
322.649	456
322.878	467
323.108	506
323.337	501
323.566	514
323.795	580
324.024	646
324.253	772
324.482	1131
324.71	1684
324.939	2426
325.168	2133
325.397	1131
325.626	730
325.855	649
326.084	570
326.313	570
326.542	541
326.77	594
326.999	712
327.228	998
327.457	1493
327.686	1873
327.914	1279
328.143	838
328.372	745
328.6	698
328.829	638
329.058	668
329.287	645
329.515	611
329.744	610
329.972	628
330.201	658
330.43	740
330.658	751
330.887	722
331.115	694
331.344	584
331.572	529
331.801	543
332.03	515
332.258	505
332.486	470
332.715	470
332.943	460
333.172	465
333.4	460
333.629	471
333.857	520
334.085	545
334.314	595
334.542	682
334.771	742
334.999	591
335.227	521
335.455	490
335.684	441
335.912	451
336.14	443
336.369	435
336.597	437
336.825	447
337.053	418
337.281	425
337.51	438
337.738	435
337.966	424
338.194	434
338.422	448
338.65	419
338.878	418
339.106	402
339.334	437
339.562	410
339.79	421
340.018	413
340.246	435
340.474	436
340.702	422
340.93	416
341.158	409
341.386	427
341.614	420
341.842	410
342.07	394
342.298	407
342.526	402
342.754	388
342.981	393
343.209	389
343.437	402
343.665	386
343.893	394
344.12	405
344.348	418
344.576	420
344.804	440
345.031	432
345.259	459
345.487	446
345.714	422
345.942	414
346.17	420
346.397	394
346.625	397
346.853	406
347.08	404
347.308	420
347.535	419
347.763	424
347.99	445
348.218	415
348.445	427
348.673	421
348.9	401
349.128	406
349.355	384
349.583	375
349.81	385
350.037	381
350.265	394
350.492	418
350.72	397
350.947	390
351.174	427
351.402	400
351.629	407
351.856	410
352.083	417
352.311	425
352.538	434
352.765	432
352.992	402
353.22	411
353.447	402
353.674	400
353.901	379
354.128	359
354.355	372
354.583	356
354.81	366
355.037	363
355.264	374
355.491	358
355.718	365
355.945	360
356.172	362
356.399	362
356.626	368
356.853	354
357.08	346
357.307	360
357.534	362
357.761	395
357.988	378
358.215	343
358.441	352
358.668	362
358.895	365
359.122	376
359.349	381
359.576	400
359.802	432
360.029	462
360.256	480
360.483	456
360.709	422
360.936	406
361.163	395
361.39	416
361.616	408
361.843	396
362.07	384
362.296	395
362.523	394
362.749	408
362.976	385
363.203	376
363.429	372
363.656	391
363.882	373
364.109	378
364.335	374
364.562	370
364.788	390
365.015	373
365.241	373
365.468	389
365.694	398
365.92	413
366.147	378
366.373	380
366.599	375
366.826	381
367.052	352
367.278	386
367.505	362
367.731	392
367.957	379
368.184	388
368.41	369
368.636	387
368.862	392
369.089	368
369.315	359
369.541	360
369.767	400
369.993	363
370.219	384
370.445	384
370.672	348
370.898	357
371.124	368
371.35	346
371.576	370
371.802	354
372.028	355
372.254	352
372.48	358
372.706	375
372.932	361
373.158	346
373.384	363
373.61	370
373.835	352
374.061	380
374.287	371
374.513	375
374.739	375
374.965	362
375.191	368
375.416	352
375.642	359
375.868	347
376.094	357
376.319	346
376.545	349
376.771	356
376.997	347
377.222	372
377.448	363
377.674	358
377.899	350
378.125	350
378.35	364
378.576	346
378.802	341
379.027	353
379.253	347
379.478	352
379.704	347
379.929	349
380.155	360
380.38	374
380.606	344
380.831	340
381.057	382
381.282	362
381.507	370
381.733	353
381.958	346
382.184	354
382.409	362
382.634	344
382.86	332
383.085	345
383.31	362
383.535	351
383.761	387
383.986	367
384.211	366
384.436	347
384.662	363
384.887	371
385.112	379
385.337	374
385.562	355
385.787	361
386.013	390
386.238	371
386.463	402
386.688	389
386.913	378
387.138	384
387.363	361
387.588	368
387.813	370
388.038	375
388.263	379
388.488	382
388.713	356
388.938	376
389.163	373
389.387	393
389.612	358
389.837	373
390.062	360
390.287	374
390.512	378
390.736	372
390.961	371
391.186	376
391.411	368
391.636	375
391.86	358
392.085	358
392.31	377
392.534	372
392.759	375
392.984	376
393.208	382
393.433	376
393.658	364
393.882	366
394.107	373
394.331	390
394.556	350
394.78	365
395.005	379
395.229	372
395.454	371
395.678	407
395.903	415
396.127	424
396.352	438
396.576	396
396.801	376
397.025	374
397.249	394
397.474	400
397.698	393
397.922	371
398.147	418
398.371	406
398.595	416
398.82	430
399.044	430
399.268	424
399.492	428
399.717	466
399.941	486
400.165	494
400.389	516
400.613	462
400.837	437
401.062	435
401.286	416
401.51	416
401.734	422
401.958	419
402.182	428
402.406	430
402.63	432
402.854	453
403.078	435
403.302	419
403.526	468
403.75	444
403.974	437
404.198	451
404.422	440
404.645	436
404.869	489
405.093	499
405.317	548
405.541	600
405.765	533
405.988	500
406.212	499
406.436	503
406.66	518
406.883	479
407.107	540
407.331	537
407.555	588
407.778	611
408.002	525
408.226	496
408.449	472
408.673	498
408.896	530
409.12	548
409.344	523
409.567	465
409.791	467
410.014	429
410.238	442
410.461	456
410.685	443
410.908	462
411.132	499
411.355	528
411.578	530
411.802	469
412.025	468
412.249	482
412.472	494
412.695	544
412.919	557
413.142	499
413.365	483
413.589	460
413.812	450
414.035	427
414.258	425
414.482	439
414.705	425
414.928	416
415.151	403
415.374	404
415.597	405
415.821	406
416.044	430
416.267	426
416.49	427
416.713	407
416.936	422
417.159	434
417.382	448
417.605	454
417.828	470
418.051	463
418.274	449
418.497	444
418.72	419
418.943	406
419.166	423
419.389	464
419.611	448
419.834	465
420.057	475
420.28	480
420.503	490
420.726	483
420.948	483
421.171	506
421.394	506
421.617	487
421.839	480
422.062	446
422.285	478
422.507	517
422.73	588
422.953	567
423.175	531
423.398	514
423.621	485
423.843	512
424.066	507
424.288	507
424.511	515
424.733	568
424.956	645
425.178	609
425.401	622
425.623	638
425.846	537
426.068	502
426.291	516
426.513	492
426.735	512
426.958	566
427.18	642
427.402	755
427.625	822
427.847	784
428.069	698
428.292	599
428.514	521
428.736	489
428.958	457
429.181	458
429.403	472
429.625	466
429.847	540
430.069	580
430.292	574
430.514	469
430.736	451
430.958	461
431.18	441
431.402	449
431.624	427
431.846	409
432.068	422
432.29	428
432.512	425
432.734	448
432.956	424
433.178	460
433.4	426
433.622	442
433.844	448
434.066	414
434.287	410
434.509	443
434.731	439
434.953	455
435.175	456
435.397	474
435.618	508
435.84	523
436.062	638
436.284	705
436.505	572
436.727	532
436.949	500
437.17	472
437.392	472
437.614	461
437.835	528
438.057	607
438.278	715
438.5	723
438.721	776
438.943	742
439.165	587
439.386	551
439.608	530
439.829	498
440.05	545
440.272	574
440.493	549
440.715	523
440.936	473
441.158	469
441.379	451
441.6	468
441.822	483
442.043	551
442.264	610
442.486	683
442.707	565
442.928	530
443.149	518
443.371	564
443.592	572
443.813	673
444.034	699
444.255	584
444.476	532
444.698	513
444.919	485
445.14	570
445.361	573
445.582	551
445.803	601
446.024	710
446.245	724
446.466	646
446.687	562
446.908	530
447.129	483
447.35	481
447.571	483
447.792	461
448.013	464
448.234	483
448.455	514
448.675	683
448.896	744
449.117	659
449.338	601
449.559	710
449.779	793
450	632
450.221	538
450.442	512
450.662	478
450.883	475
451.104	495
451.324	483
451.545	445
451.766	460
451.986	405
452.207	428
452.428	401
452.648	403
452.869	419
453.089	432
453.31	439
453.53	415
453.751	410
453.971	438
454.192	436
454.412	452
454.633	423
454.853	402
455.073	404
455.294	441
455.514	509
455.734	505
455.955	431
456.175	386
456.395	399
456.616	376
456.836	381
457.056	371
457.276	380
457.497	369
457.717	382
457.937	396
458.157	402
458.377	398
458.598	425
458.818	478
459.038	569
459.258	598
459.478	496
459.698	450
459.918	424
460.138	431
460.358	402
460.578	428
460.798	425
461.018	426
461.238	412
461.458	404
461.678	395
461.898	410
462.118	408
462.338	407
462.558	409
462.777	418
462.997	436
463.217	419
463.437	444
463.657	436
463.876	436
464.096	417
464.316	406
464.536	428
464.755	453
464.975	465
465.195	487
465.414	589
465.634	522
465.854	462
466.073	459
466.293	445
466.512	436
466.732	410
466.951	404
467.171	400
467.391	446
467.61	431
467.829	443
468.049	446
468.268	468
468.488	439
468.707	433
468.927	419
469.146	393
469.365	430
469.585	399
469.804	434
470.023	424
470.243	441
470.462	431
470.681	466
470.901	467
471.12	418
471.339	425
471.558	428
471.777	417
471.997	421
472.216	464
472.435	566
472.654	531
472.873	490
473.092	448
473.311	433
473.53	428
473.749	448
473.968	504
474.187	586
474.406	648
474.625	494
474.844	479
475.063	442
475.282	426
475.501	443
475.72	442
475.939	431
476.158	440
476.377	441
476.596	448
476.814	468
477.033	468
477.252	465
477.471	463
477.69	469
477.908	465
478.127	449
478.346	465
478.564	457
478.783	464
479.002	477
479.22	486
479.439	489
479.658	510
479.876	532
480.095	524
480.313	543
480.532	543
480.751	553
480.969	580
481.188	722
481.406	840
481.624	672
481.843	599
482.061	584
482.28	532
482.498	522
482.717	516
482.935	514
483.153	512
483.372	533
483.59	504
483.808	509
484.027	512
484.245	521
484.463	496
484.681	517
484.9	523
485.118	524
485.336	529
485.554	534
485.772	540
485.99	540
486.209	528
486.427	549
486.645	553
486.863	589
487.081	576
487.299	568
487.517	573
487.735	544
487.953	566
488.171	559
488.389	569
488.607	558
488.825	585
489.043	576
489.261	568
489.479	568
489.696	552
489.914	582
490.132	599
490.35	583
490.568	604
490.786	611
491.003	610
491.221	634
491.439	648
491.657	639
491.874	661
492.092	668
492.31	669
492.527	686
492.745	692
492.963	684
493.18	674
493.398	686
493.615	700
493.833	681
494.05	680
494.268	665
494.485	674
494.703	661
494.92	688
495.138	676
495.355	692
495.573	711
495.79	686
496.008	650
496.225	666
496.442	658
496.66	675
496.877	645
497.094	656
497.312	668
497.529	692
497.746	694
497.963	699
498.181	699
498.398	688
498.615	692
498.832	714
499.049	719
499.267	712
499.484	739
499.701	744
499.918	746
500.135	776
500.352	784
500.569	795
500.786	820
501.003	797
501.22	788
501.437	761
501.654	796
501.871	808
502.088	754
502.305	752
502.522	735
502.739	696
502.956	702
503.172	681
503.389	684
503.606	691
503.823	694
504.04	679
504.256	650
504.473	664
504.69	659
504.907	650
505.123	653
505.34	654
505.557	644
505.773	631
505.99	638
506.207	628
506.423	670
506.64	654
506.856	637
507.073	628
507.289	598
507.506	601
507.722	660
507.939	676
508.155	634
508.372	605
508.588	634
508.805	606
509.021	623
509.238	637
509.454	639
509.67	603
509.887	636
510.103	632
510.319	665
510.536	754
510.752	1271
510.968	1030
511.184	663
511.401	602
511.617	608
511.833	597
512.049	630
512.265	614
512.481	618
512.698	611
512.914	593
513.13	598
513.346	620
513.562	586
513.778	601
513.994	618
514.21	615
514.426	663
514.642	687
514.858	716
515.074	768
515.29	917
515.506	1404
515.721	1158
515.937	760
516.153	680
516.369	644
516.585	613
516.801	608
517.016	611
517.232	603
517.448	602
517.664	579
517.879	601
518.095	571
518.311	568
518.527	579
518.742	583
518.958	565
519.173	594
519.389	591
519.605	579
519.82	571
520.036	616
520.251	628
520.467	658
520.682	663
520.898	669
521.113	721
521.329	774
521.544	841
521.76	1139
521.975	1928
522.19	1886
522.406	1009
522.621	715
522.836	627
523.052	584
523.267	564
523.482	558
523.698	543
523.913	542
524.128	563
524.343	531
524.559	508
524.774	514
524.989	509
525.204	521
525.419	527
525.634	521
525.849	515
526.064	494
526.28	491
526.495	486
526.71	488
526.925	489
527.14	478
527.355	475
527.57	460
527.785	462
527.999	452
528.214	459
528.429	479
528.644	460
528.859	467
529.074	470
529.289	501
529.503	604
529.718	579
529.933	518
530.148	470
530.363	474
530.577	477
530.792	460
531.007	457
531.221	448
531.436	454
531.651	463
531.865	442
532.08	465
532.295	442
532.509	438
532.724	435
532.938	452
533.153	443
533.367	425
533.582	438
533.796	410
534.011	440
534.225	432
534.44	430
534.654	420
534.868	442
535.083	432
535.297	449
535.511	441
535.726	450
535.94	455
536.154	460
536.369	433
536.583	387
536.797	430
537.011	446
537.225	432
537.44	413
537.654	425
537.868	436
538.082	428
538.296	420
538.51	418
538.724	426
538.938	418
539.153	427
539.367	446
539.581	440
539.795	437
540.009	431
540.222	431
540.436	436
540.65	427
540.864	425
541.078	441
541.292	443
541.506	408
541.72	407
541.934	424
542.147	433
542.361	436
542.575	423
542.789	427
543.002	403
543.216	420
543.43	420
543.644	428
543.857	404
544.071	419
544.285	424
544.498	410
544.712	394
544.925	414
545.139	407
545.352	416
545.566	400
545.779	392
545.993	390
546.206	405
546.42	415
546.633	395
546.847	389
547.06	384
547.274	393
547.487	376
547.7	396
547.914	407
548.127	402
548.34	405
548.554	395
548.767	388
548.98	391
549.193	371
549.407	386
549.62	374
549.833	378
550.046	380
550.259	374
550.473	369
550.686	378
550.899	399
551.112	390
551.325	362
551.538	384
551.751	386
551.964	373
552.177	371
552.39	370
552.603	382
552.816	376
553.029	385
553.242	364
553.455	386
553.667	412
553.88	418
554.093	399
554.306	395
554.519	392
554.732	381
554.944	383
555.157	374
555.37	374
555.583	368
555.795	378
556.008	367
556.221	343
556.433	350
556.646	341
556.859	370
557.071	372
557.284	362
557.496	364
557.709	370
557.921	366
558.134	342
558.346	369
558.559	342
558.771	347
558.984	341
559.196	338
559.409	351
559.621	331
559.833	326
560.046	353
560.258	340
560.47	338
560.683	352
560.895	337
561.107	358
561.32	339
561.532	342
561.744	346
561.956	336
562.168	364
562.381	346
562.593	348
562.805	358
563.017	362
563.229	343
563.441	330
563.653	339
563.865	351
564.077	347
564.289	340
564.501	352
564.713	347
564.925	346
565.137	372
565.349	359
565.561	368
565.773	358
565.985	372
566.197	362
566.408	350
566.62	371
566.832	386
567.044	392
567.255	370
567.467	374
567.679	393
567.891	402
568.102	384
568.314	380
568.526	377
568.737	366
568.949	366
569.161	367
569.372	353
569.584	366
569.795	361
570.007	367
570.218	400
570.43	394
570.641	334
570.853	332
571.064	349
571.276	322
571.487	311
571.698	334
571.91	323
572.121	306
572.333	335
572.544	335
572.755	314
572.966	333
573.178	308
573.389	308
573.6	316
573.811	316
574.023	307
574.234	298
574.445	314
574.656	298
574.867	300
575.078	277
575.289	305
575.501	304
575.712	292
575.923	295
576.134	304
576.345	302
576.556	306
576.767	299
576.978	318
577.188	277
577.399	302
577.61	299
577.821	296
578.032	292
578.243	341
578.454	610
578.665	432
578.875	316
579.086	295
579.297	305
579.508	294
579.718	298
579.929	306
580.14	281
580.35	283
580.561	278
580.772	273
580.982	279
581.193	275
581.403	271
581.614	281
581.825	288
582.035	272
582.246	287
582.456	288
582.667	276
582.877	274
583.087	264
583.298	274
583.508	244
583.719	290
583.929	276
584.139	289
584.35	268
584.56	277
584.77	266
584.981	258
585.191	287
585.401	274
585.611	281
585.821	272
586.032	286
586.242	268
586.452	261
586.662	257
586.872	276
587.082	274
587.292	272
587.502	258
587.713	273
587.923	252
588.133	268
588.343	241
588.553	259
588.762	259
588.972	282
589.182	289
589.392	282
589.602	280
589.812	263
590.022	263
590.232	269
590.441	256
590.651	261
590.861	268
591.071	258
591.281	261
591.49	265
591.7	267
591.91	264
592.119	270
592.329	272
592.539	279
592.748	266
592.958	261
593.167	251
593.377	280
593.587	283
593.796	263
594.006	268
594.215	264
594.424	267
594.634	271
594.843	257
595.053	245
595.262	266
595.472	249
595.681	255
595.89	249
596.1	257
596.309	260
596.518	254
596.727	240
596.937	245
597.146	265
597.355	274
597.564	264
597.774	243
597.983	238
598.192	239
598.401	222
598.61	243
598.819	241
599.028	243
599.237	239
599.446	238
599.655	239
599.864	241
600.073	240
600.282	228
600.491	239
600.7	236
600.909	237
601.118	238
601.327	232
601.536	250
601.745	232
601.953	218
602.162	238
602.371	241
602.58	235
602.789	235
602.997	244
603.206	222
603.415	227
603.623	224
603.832	231
604.041	221
604.249	222
604.458	238
604.666	227
604.875	230
605.084	236
605.292	212
605.501	202
605.709	233
605.918	217
606.126	238
606.334	225
606.543	227
606.751	229
606.96	228
607.168	220
607.376	224
607.585	235
607.793	219
608.001	223
608.21	212
608.418	213
608.626	208
608.834	228
609.043	239
609.251	230
609.459	215
609.667	222
609.875	223
610.083	201
610.291	225
610.499	237
610.707	226
610.916	218
611.124	230
611.332	224
611.54	241
611.748	214
611.955	226
612.163	220
612.371	214
612.579	231
612.787	246
612.995	236
613.203	223
613.411	218
613.618	217
613.826	208
614.034	217
614.242	219
614.449	224
614.657	232
614.865	228
615.072	227
615.28	217
615.488	216
615.695	213
615.903	207
616.111	222
616.318	224
616.526	218
616.733	230
616.941	220
617.148	214
617.356	221
617.563	197
617.771	216
617.978	219
618.185	216
618.393	221
618.6	202
618.807	222
619.015	220
619.222	223
619.429	206
619.637	218
619.844	220
620.051	210
620.258	198
620.466	190
620.673	198
620.88	201
621.087	191
621.294	195
621.501	210
621.708	209
621.915	188
622.122	215
622.329	225
622.536	201
622.743	193
622.95	187
623.157	196
623.364	201
623.571	208
623.778	200
623.985	202
624.192	198
624.399	187
624.606	192
624.812	204
625.019	211
625.226	194
625.433	198
625.639	200
625.846	187
626.053	192
626.259	174
626.466	208
626.673	190
626.879	193
627.086	200
627.293	193
627.499	171
627.706	194
627.912	198
628.119	203
628.325	185
628.532	175
628.738	183
628.945	180
629.151	196
629.357	177
629.564	181
629.77	189
629.976	178
630.183	179
630.389	171
630.595	176
630.802	164
631.008	169
631.214	178
631.42	184
631.627	193
631.833	179
632.039	175
632.245	171
632.451	182
632.657	166
632.863	184
633.069	181
633.275	183
633.481	153
633.688	174
633.893	174
634.099	174
634.305	175
634.511	194
634.717	167
634.923	176
635.129	179
635.335	165
635.541	162
635.747	167
635.952	169
636.158	174
636.364	186
636.57	199
636.775	182
636.981	156
637.187	178
637.392	168
637.598	171
637.804	178
638.009	168
638.215	168
638.421	175
638.626	178
638.832	152
639.037	165
639.243	150
639.448	161
639.654	168
639.859	163
640.065	159
640.27	169
640.475	151
640.681	167
640.886	165
641.091	167
641.297	150
641.502	155
641.707	174
641.913	154
642.118	165
642.323	157
642.528	138
642.733	144
642.939	162
643.144	167
643.349	168
643.554	168
643.759	171
643.964	157
644.169	153
644.374	167
644.579	170
644.784	170
644.989	159
645.194	158
645.399	142
645.604	154
645.809	162
646.014	164
646.219	140
646.423	145
646.628	162
646.833	149
647.038	160
647.243	153
647.447	144
647.652	168
647.857	149
648.062	161
648.266	144
648.471	163
648.676	149
648.88	157
649.085	145
649.289	143
649.494	148
649.698	192
649.903	172
650.107	163
650.312	159
650.516	147
650.721	139
650.925	129
651.13	149
651.334	136
651.539	144
651.743	144
651.947	124
652.152	146
652.356	126
652.56	140
652.764	139
652.969	138
653.173	126
653.377	130
653.581	130
653.785	126
653.99	138
654.194	130
654.398	121
654.602	128
654.806	122
655.01	134
655.214	123
655.418	136
655.622	122
655.826	108
656.03	128
656.234	110
656.438	120
656.642	118
656.846	121
657.049	118
657.253	135
657.457	121
657.661	110
657.865	112
658.068	106
658.272	94
658.476	115
658.68	87
658.883	89
659.087	104
659.291	107
659.494	103
659.698	92
659.901	78
660.105	90
660.309	96
660.512	85
660.716	97
660.919	86
661.123	91
661.326	87
661.53	96
661.733	85
661.936	80
662.14	86
662.343	86
662.546	72
662.75	83
662.953	84
663.156	76
663.36	82
663.563	85
663.766	81
663.969	84
664.173	98
664.376	87
664.579	75
664.782	87
664.985	82
665.188	84
665.391	71
665.594	82
665.797	89
666	98
666.203	70
666.406	84
666.609	80
666.812	76
667.015	81
667.218	90
667.421	85
667.624	86
667.827	83
668.03	78
668.232	71
668.435	80
668.638	82
668.841	88
669.043	87
669.246	87
669.449	94
669.651	90
669.854	72
670.057	84
670.259	83
670.462	88
670.665	75
670.867	87
671.07	72
671.272	79
671.475	91
671.677	71
671.88	90
672.082	68
672.284	85
672.487	74
672.689	67
672.892	85
