Data from 1986.PennyLincolnUp.Lamp.En5.5.200Scan.071819.P2_HRD10591_17-11-02-974.txt Node
Date: Thu Jul 18 17:11:02 EDT 2019
User: cochatt
Spectrometer: HR+D1059
Trigger mode: 1
Integration Time (sec): 1.000000E-1
Scans to average: 1
Electric dark correction enabled: true
Nonlinearity correction enabled: false
Boxcar width: 0
XAxis mode: Wavelengths
Number of Pixels in Spectrum: 2048
>>>>>Begin Spectral Data<<<<<
223.165	-28
223.4	-28
223.635	-28
223.869	-42
224.104	-13
224.338	-17
224.573	-11
224.808	1
225.042	-3
225.277	-9
225.511	16
225.746	19
225.98	11
226.215	-2
226.449	7
226.683	18
226.918	25
227.152	28
227.387	36
227.621	42
227.856	40
228.09	41
228.324	55
228.559	49
228.793	73
229.027	92
229.262	116
229.496	130
229.73	137
229.964	160
230.199	126
230.433	129
230.667	107
230.901	122
231.136	114
231.37	118
231.604	128
231.838	115
232.072	108
232.306	122
232.541	108
232.775	109
233.009	104
233.243	98
233.477	106
233.711	124
233.945	106
234.179	110
234.413	105
234.647	101
234.881	134
235.115	125
235.349	116
235.583	136
235.817	123
236.051	128
236.285	139
236.519	132
236.753	131
236.987	143
237.221	194
237.455	236
237.689	185
237.922	149
238.156	151
238.39	127
238.624	118
238.858	127
239.091	112
239.325	126
239.559	139
239.793	124
240.027	130
240.26	137
240.494	167
240.728	160
240.961	155
241.195	150
241.429	145
241.662	137
241.896	128
242.13	124
242.363	126
242.597	134
242.83	132
243.064	135
243.298	134
243.531	134
243.765	140
243.998	115
244.232	139
244.465	132
244.699	138
244.932	146
245.166	143
245.399	133
245.633	136
245.866	134
246.099	126
246.333	158
246.566	154
246.8	152
247.033	169
247.266	154
247.5	162
247.733	188
247.966	180
248.2	177
248.433	171
248.666	176
248.899	201
249.133	218
249.366	217
249.599	215
249.832	191
250.066	195
250.299	190
250.532	197
250.765	204
250.998	238
251.231	236
251.465	230
251.698	226
251.931	231
252.164	214
252.397	205
252.63	211
252.863	222
253.096	232
253.329	232
253.562	232
253.795	226
254.028	239
254.261	224
254.494	244
254.727	266
254.96	289
255.193	291
255.426	280
255.659	248
255.892	267
256.124	247
256.357	272
256.59	256
256.823	234
257.056	234
257.289	233
257.521	216
257.754	226
257.987	202
258.22	219
258.452	238
258.685	229
258.918	205
259.151	217
259.383	234
259.616	229
259.849	235
260.081	237
260.314	241
260.547	274
260.779	272
261.012	245
261.244	248
261.477	247
261.71	213
261.942	242
262.175	256
262.407	240
262.64	232
262.872	212
263.105	210
263.337	213
263.57	218
263.802	228
264.035	212
264.267	217
264.499	226
264.732	221
264.964	208
265.197	204
265.429	205
265.661	212
265.894	209
266.126	210
266.358	202
266.591	211
266.823	221
267.055	224
267.287	216
267.52	243
267.752	220
267.984	211
268.216	229
268.448	231
268.681	252
268.913	236
269.145	280
269.377	281
269.609	269
269.841	271
270.073	284
270.306	310
270.538	338
270.77	333
271.002	323
271.234	295
271.466	305
271.698	334
271.93	334
272.162	333
272.394	330
272.626	337
272.858	292
273.09	301
273.322	294
273.553	270
273.785	271
274.017	278
274.249	265
274.481	260
274.713	276
274.945	278
275.176	251
275.408	249
275.64	269
275.872	272
276.104	237
276.335	262
276.567	265
276.799	280
277.031	293
277.262	316
277.494	320
277.726	302
277.957	302
278.189	289
278.421	285
278.652	269
278.884	274
279.115	274
279.347	259
279.579	270
279.81	249
280.042	246
280.273	265
280.505	280
280.736	244
280.968	248
281.199	225
281.431	265
281.662	241
281.894	257
282.125	260
282.356	280
282.588	298
282.819	307
283.051	266
283.282	237
283.513	264
283.745	265
283.976	275
284.207	267
284.439	287
284.67	264
284.901	265
285.132	270
285.364	270
285.595	263
285.826	250
286.057	258
286.288	288
286.52	274
286.751	252
286.982	288
287.213	272
287.444	253
287.675	261
287.906	284
288.138	294
288.369	313
288.6	293
288.831	266
289.062	286
289.293	279
289.524	275
289.755	269
289.986	296
290.217	304
290.448	279
290.679	250
290.91	260
291.141	270
291.371	278
291.602	267
291.833	277
292.064	280
292.295	280
292.526	270
292.757	261
292.987	280
293.218	268
293.449	274
293.68	267
293.91	276
294.141	276
294.372	262
294.603	270
294.833	261
295.064	265
295.295	289
295.525	281
295.756	269
295.987	299
296.217	309
296.448	320
296.679	269
296.909	280
297.14	268
297.37	298
297.601	282
297.831	281
298.062	267
298.292	272
298.523	286
298.753	276
298.984	274
299.214	284
299.445	285
299.675	293
299.905	293
300.136	299
300.366	312
300.597	293
300.827	298
301.057	309
301.288	321
301.518	300
301.748	287
301.979	285
302.209	306
302.439	305
302.669	293
302.9	312
303.13	301
303.36	293
303.59	310
303.82	298
304.051	324
304.281	294
304.511	295
304.741	304
304.971	296
305.201	296
305.431	304
305.661	302
305.891	292
306.121	316
306.352	301
306.582	346
306.812	313
307.042	313
307.272	303
307.502	319
307.731	318
307.961	317
308.191	302
308.421	307
308.651	317
308.881	320
309.111	346
309.341	338
309.571	350
309.8	332
310.03	345
310.26	356
310.49	371
310.72	373
310.949	380
311.179	396
311.409	364
311.639	365
311.868	362
312.098	382
312.328	380
312.557	393
312.787	392
313.017	406
313.246	357
313.476	380
313.706	354
313.935	384
314.165	368
314.394	396
314.624	375
314.853	386
315.083	367
315.312	350
315.542	348
315.771	331
316.001	340
316.23	341
316.46	334
316.689	353
316.919	359
317.148	355
317.377	372
317.607	365
317.836	354
318.065	365
318.295	372
318.524	352
318.753	357
318.983	362
319.212	349
319.441	366
319.67	372
319.9	348
320.129	362
320.358	372
320.587	362
320.816	375
321.046	382
321.275	393
321.504	380
321.733	393
321.962	404
322.191	418
322.42	438
322.649	446
322.878	464
323.108	467
323.337	509
323.566	509
323.795	563
324.024	627
324.253	740
324.482	1099
324.71	1662
324.939	2316
325.168	2057
325.397	1105
325.626	720
325.855	597
326.084	557
326.313	535
326.542	555
326.77	572
326.999	702
327.228	963
327.457	1430
327.686	1771
327.914	1247
328.143	837
328.372	691
328.6	673
328.829	634
329.058	620
329.287	637
329.515	590
329.744	555
329.972	570
330.201	573
330.43	629
330.658	660
330.887	646
331.115	639
331.344	532
331.572	486
331.801	499
332.03	477
332.258	478
332.486	474
332.715	421
332.943	418
333.172	416
333.4	437
333.629	442
333.857	469
334.085	482
334.314	502
334.542	588
334.771	619
334.999	529
335.227	470
335.455	446
335.684	420
335.912	428
336.14	420
336.369	424
336.597	412
336.825	421
337.053	415
337.281	388
337.51	393
337.738	433
337.966	394
338.194	414
338.422	426
338.65	425
338.878	404
339.106	396
339.334	390
339.562	381
339.79	407
340.018	402
340.246	404
340.474	405
340.702	428
340.93	402
341.158	387
341.386	388
341.614	410
341.842	395
342.07	406
342.298	405
342.526	390
342.754	394
342.981	373
343.209	387
343.437	382
343.665	375
343.893	384
344.12	400
344.348	389
344.576	392
344.804	399
345.031	410
345.259	440
345.487	419
345.714	389
345.942	388
346.17	382
346.397	379
346.625	386
346.853	368
347.08	384
347.308	371
347.535	394
347.763	411
347.99	436
348.218	404
348.445	403
348.673	421
348.9	391
349.128	390
349.355	391
349.583	394
349.81	366
350.037	365
350.265	385
350.492	385
350.72	384
350.947	404
351.174	384
351.402	405
351.629	425
351.856	395
352.083	408
352.311	403
352.538	414
352.765	403
352.992	396
353.22	407
353.447	386
353.674	396
353.901	397
354.128	378
354.355	360
354.583	357
354.81	355
355.037	372
355.264	353
355.491	345
355.718	342
355.945	344
356.172	354
356.399	360
356.626	331
356.853	363
357.08	344
357.307	334
357.534	340
357.761	346
357.988	343
358.215	380
358.441	348
358.668	355
358.895	361
359.122	357
359.349	359
359.576	397
359.802	420
360.029	438
360.256	464
360.483	448
360.709	385
360.936	404
361.163	391
361.39	397
361.616	388
361.843	388
362.07	401
362.296	377
362.523	393
362.749	398
362.976	392
363.203	383
363.429	370
363.656	374
363.882	376
364.109	355
364.335	365
364.562	342
364.788	371
365.015	373
365.241	353
365.468	374
365.694	385
365.92	379
366.147	358
366.373	364
366.599	355
366.826	363
367.052	363
367.278	350
367.505	354
367.731	376
367.957	368
368.184	357
368.41	357
368.636	374
368.862	384
369.089	372
369.315	362
369.541	342
369.767	352
369.993	376
370.219	350
370.445	347
370.672	363
370.898	348
371.124	352
371.35	347
371.576	368
371.802	362
372.028	336
372.254	346
372.48	346
372.706	362
372.932	329
373.158	348
373.384	340
373.61	342
373.835	377
374.061	347
374.287	339
374.513	346
374.739	369
374.965	347
375.191	365
375.416	357
375.642	338
375.868	370
376.094	333
376.319	364
376.545	355
376.771	350
376.997	360
377.222	350
377.448	357
377.674	336
377.899	339
378.125	325
378.35	344
378.576	348
378.802	360
379.027	363
379.253	358
379.478	333
379.704	336
379.929	334
380.155	352
380.38	360
380.606	364
380.831	364
381.057	365
381.282	346
381.507	347
381.733	376
381.958	368
382.184	359
382.409	319
382.634	361
382.86	362
383.085	359
383.31	369
383.535	376
383.761	349
383.986	360
384.211	349
384.436	357
384.662	358
384.887	359
385.112	348
385.337	355
385.562	343
385.787	352
386.013	385
386.238	378
386.463	353
386.688	362
386.913	374
387.138	349
387.363	362
387.588	364
387.813	377
388.038	372
388.263	358
388.488	363
388.713	344
388.938	355
389.163	365
389.387	356
389.612	368
389.837	362
390.062	366
390.287	362
390.512	344
390.736	376
390.961	378
391.186	376
391.411	354
391.636	364
391.86	362
392.085	368
392.31	368
392.534	381
392.759	377
392.984	370
393.208	354
393.433	372
393.658	385
393.882	345
394.107	358
394.331	368
394.556	370
394.78	348
395.005	378
395.229	358
395.454	359
395.678	363
395.903	380
396.127	415
396.352	409
396.576	387
396.801	380
397.025	374
397.249	389
397.474	387
397.698	394
397.922	389
398.147	400
398.371	432
398.595	404
398.82	397
399.044	402
399.268	398
399.492	402
399.717	469
399.941	461
400.165	506
400.389	514
400.613	441
400.837	436
401.062	446
401.286	420
401.51	421
401.734	403
401.958	407
402.182	420
402.406	429
402.63	426
402.854	412
403.078	425
403.302	434
403.526	445
403.75	435
403.974	417
404.198	412
404.422	436
404.645	450
404.869	462
405.093	481
405.317	537
405.541	562
405.765	499
405.988	464
406.212	455
406.436	508
406.66	499
406.883	462
407.107	496
407.331	525
407.555	571
407.778	577
408.002	522
408.226	492
408.449	477
408.673	460
408.896	510
409.12	540
409.344	525
409.567	446
409.791	440
410.014	425
410.238	428
410.461	428
410.685	425
410.908	464
411.132	486
411.355	524
411.578	504
411.802	481
412.025	437
412.249	448
412.472	472
412.695	535
412.919	520
413.142	466
413.365	452
413.589	415
413.812	399
414.035	416
414.258	404
414.482	405
414.705	407
414.928	398
415.151	388
415.374	393
415.597	410
415.821	399
416.044	399
416.267	411
416.49	418
416.713	415
416.936	411
417.159	412
417.382	417
417.605	416
417.828	439
418.051	414
418.274	448
418.497	412
418.72	423
418.943	406
419.166	426
419.389	436
419.611	423
419.834	424
420.057	451
420.28	457
420.503	453
420.726	456
420.948	453
421.171	484
421.394	522
421.617	457
421.839	426
422.062	437
422.285	459
422.507	500
422.73	562
422.953	561
423.175	480
423.398	443
423.621	456
423.843	467
424.066	454
424.288	462
424.511	495
424.733	540
424.956	614
425.178	597
425.401	582
425.623	610
425.846	539
426.068	500
426.291	479
426.513	489
426.735	498
426.958	512
427.18	609
427.402	732
427.625	798
427.847	755
428.069	645
428.292	581
428.514	500
428.736	497
428.958	480
429.181	459
429.403	461
429.625	462
429.847	505
430.069	564
430.292	552
430.514	482
430.736	453
430.958	451
431.18	433
431.402	422
431.624	418
431.846	404
432.068	398
432.29	420
432.512	424
432.734	425
432.956	411
433.178	424
433.4	458
433.622	421
433.844	425
434.066	414
434.287	406
434.509	420
434.731	417
434.953	414
435.175	434
435.397	472
435.618	482
435.84	526
436.062	611
436.284	669
436.505	581
436.727	512
436.949	473
437.17	467
437.392	452
437.614	450
437.835	503
438.057	602
438.278	694
438.5	700
438.721	732
438.943	724
439.165	595
439.386	524
439.608	504
439.829	520
440.05	549
440.272	576
440.493	548
440.715	484
440.936	478
441.158	479
441.379	466
441.6	462
441.822	475
442.043	539
442.264	624
442.486	662
442.707	555
442.928	497
443.149	512
443.371	517
443.592	564
443.813	660
444.034	704
444.255	590
444.476	510
444.698	482
444.919	477
445.14	553
445.361	539
445.582	524
445.803	590
446.024	693
446.245	698
446.466	630
446.687	550
446.908	507
447.129	481
447.35	460
447.571	445
447.792	437
448.013	466
448.234	469
448.455	511
448.675	654
448.896	742
449.117	616
449.338	594
449.559	668
449.779	772
450	645
450.221	534
450.442	479
450.662	450
450.883	474
451.104	478
451.324	461
451.545	443
451.766	425
451.986	402
452.207	385
452.428	404
452.648	415
452.869	405
453.089	416
453.31	429
453.53	415
453.751	429
453.971	432
454.192	424
454.412	435
454.633	416
454.853	398
455.073	413
455.294	432
455.514	508
455.734	477
455.955	427
456.175	387
456.395	375
456.616	369
456.836	378
457.056	374
457.276	382
457.497	381
457.717	386
457.937	377
458.157	383
458.377	382
458.598	420
458.818	472
459.038	570
459.258	578
459.478	485
459.698	424
459.918	424
460.138	409
460.358	416
460.578	421
460.798	410
461.018	398
461.238	397
461.458	386
461.678	381
461.898	396
462.118	405
462.338	400
462.558	411
462.777	407
462.997	424
463.217	425
463.437	424
463.657	424
463.876	422
464.096	424
464.316	414
464.536	452
464.755	438
464.975	465
465.195	501
465.414	624
465.634	510
465.854	487
466.073	440
466.293	422
466.512	422
466.732	408
466.951	393
467.171	408
467.391	416
467.61	416
467.829	410
468.049	418
468.268	460
468.488	423
468.707	394
468.927	417
469.146	381
469.365	404
469.585	398
469.804	407
470.023	403
470.243	421
470.462	427
470.681	439
470.901	430
471.12	413
471.339	407
471.558	413
471.777	416
471.997	398
472.216	416
472.435	503
472.654	490
472.873	441
473.092	430
473.311	450
473.53	412
473.749	444
473.968	468
474.187	586
474.406	591
474.625	484
474.844	443
475.063	425
475.282	426
475.501	428
475.72	436
475.939	403
476.158	426
476.377	444
476.596	427
476.814	462
477.033	440
477.252	425
477.471	436
477.69	429
477.908	432
478.127	438
478.346	429
478.564	450
478.783	448
479.002	476
479.22	466
479.439	480
479.658	506
479.876	487
480.095	512
480.313	545
480.532	532
480.751	510
480.969	521
481.188	630
481.406	735
481.624	588
481.843	544
482.061	515
482.28	509
482.498	508
482.717	497
482.935	502
483.153	488
483.372	510
483.59	494
483.808	481
484.027	482
484.245	488
484.463	498
484.681	478
484.9	486
485.118	532
485.336	509
485.554	507
485.772	504
485.99	502
486.209	522
486.427	544
486.645	542
486.863	546
487.081	559
487.299	536
487.517	549
487.735	514
487.953	543
488.171	524
488.389	553
488.607	537
488.825	550
489.043	517
489.261	539
489.479	557
489.696	563
489.914	559
490.132	562
490.35	563
490.568	584
490.786	573
491.003	588
491.221	604
491.439	616
491.657	608
491.874	588
492.092	625
492.31	638
492.527	633
492.745	633
492.963	632
493.18	641
493.398	636
493.615	644
493.833	633
494.05	642
494.268	656
494.485	660
494.703	660
494.92	632
495.138	658
495.355	659
495.573	642
495.79	660
496.008	664
496.225	653
496.442	646
496.66	638
496.877	653
497.094	660
497.312	648
497.529	671
497.746	648
497.963	653
498.181	692
498.398	704
498.615	673
498.832	696
499.049	694
499.267	663
499.484	704
499.701	720
499.918	718
500.135	764
500.352	768
500.569	733
500.786	772
501.003	788
501.22	773
501.437	776
501.654	764
501.871	781
502.088	772
502.305	717
502.522	690
502.739	690
502.956	661
503.172	669
503.389	645
503.606	651
503.823	680
504.04	653
504.256	637
504.473	625
504.69	602
504.907	638
505.123	636
505.34	614
505.557	642
505.773	644
505.99	612
506.207	622
506.423	622
506.64	611
506.856	626
507.073	608
507.289	619
507.506	593
507.722	635
507.939	653
508.155	613
508.372	619
508.588	601
508.805	598
509.021	600
509.238	625
509.454	618
509.67	616
509.887	604
510.103	606
510.319	614
510.536	747
510.752	1244
510.968	1035
511.184	652
511.401	624
511.617	588
511.833	599
512.049	601
512.265	581
512.481	596
512.698	578
512.914	566
513.13	579
513.346	569
513.562	567
513.778	558
513.994	582
514.21	604
514.426	647
514.642	683
514.858	715
515.074	776
515.29	928
515.506	1417
515.721	1186
515.937	749
516.153	681
516.369	610
516.585	610
516.801	601
517.016	578
517.232	566
517.448	586
517.664	582
517.879	556
518.095	580
518.311	565
518.527	557
518.742	550
518.958	554
519.173	541
519.389	563
519.605	575
519.82	586
520.036	579
520.251	641
520.467	655
520.682	649
520.898	683
521.113	690
521.329	755
521.544	864
521.76	1140
521.975	1928
522.19	1929
522.406	990
522.621	713
522.836	632
523.052	594
523.267	587
523.482	541
523.698	555
523.913	580
524.128	532
524.343	528
524.559	517
524.774	526
524.989	493
525.204	517
525.419	508
525.634	468
525.849	481
526.064	483
526.28	451
526.495	457
526.71	455
526.925	458
527.14	473
527.355	466
527.57	456
527.785	454
527.999	434
528.214	470
528.429	465
528.644	458
528.859	473
529.074	446
529.289	484
529.503	573
529.718	567
529.933	512
530.148	480
530.363	471
530.577	464
530.792	446
531.007	456
531.221	460
531.436	438
531.651	432
531.865	449
532.08	415
532.295	436
532.509	425
532.724	418
532.938	413
533.153	422
533.367	422
533.582	424
533.796	417
534.011	411
534.225	412
534.44	409
534.654	412
534.868	404
535.083	402
535.297	393
535.511	438
535.726	436
535.94	439
536.154	426
536.369	437
536.583	432
536.797	432
537.011	414
537.225	430
537.44	403
537.654	398
537.868	404
538.082	421
538.296	417
538.51	411
538.724	399
538.938	404
539.153	404
539.367	429
539.581	442
539.795	425
540.009	411
540.222	408
540.436	416
540.65	419
540.864	427
541.078	424
541.292	427
541.506	412
541.72	418
541.934	399
542.147	393
542.361	392
542.575	397
542.789	384
543.002	406
543.216	414
543.43	403
543.644	399
543.857	429
544.071	415
544.285	393
544.498	408
544.712	404
544.925	393
545.139	388
545.352	399
545.566	390
545.779	397
545.993	382
546.206	396
546.42	402
546.633	398
546.847	396
547.06	381
547.274	382
547.487	372
547.7	384
547.914	365
548.127	379
548.34	380
548.554	378
548.767	373
548.98	361
549.193	356
549.407	374
549.62	371
549.833	376
550.046	371
550.259	394
550.473	354
550.686	355
550.899	370
551.112	369
551.325	376
551.538	373
551.751	353
551.964	355
552.177	381
552.39	358
552.603	362
552.816	359
553.029	372
553.242	380
553.455	376
553.667	389
553.88	409
554.093	392
554.306	369
554.519	378
554.732	369
554.944	372
555.157	371
555.37	373
555.583	363
555.795	356
556.008	365
556.221	350
556.433	356
556.646	331
556.859	339
557.071	356
557.284	347
557.496	343
557.709	346
557.921	330
558.134	347
558.346	343
558.559	336
558.771	342
558.984	340
559.196	335
559.409	353
559.621	352
559.833	347
560.046	327
560.258	319
560.47	348
560.683	355
560.895	352
561.107	323
561.32	336
561.532	324
561.744	333
561.956	331
562.168	326
562.381	347
562.593	351
562.805	333
563.017	336
563.229	327
563.441	344
563.653	344
563.865	345
564.077	346
564.289	337
564.501	351
564.713	333
564.925	336
565.137	361
565.349	357
565.561	364
565.773	354
565.985	357
566.197	366
566.408	360
566.62	384
566.832	371
567.044	363
567.255	372
567.467	359
567.679	371
567.891	404
568.102	369
568.314	349
568.526	345
568.737	375
568.949	353
569.161	346
569.372	333
569.584	323
569.795	323
570.007	345
570.218	386
570.43	372
570.641	335
570.853	328
571.064	312
571.276	313
571.487	321
571.698	335
571.91	307
572.121	308
572.333	314
572.544	306
572.755	302
572.966	309
573.178	288
573.389	304
573.6	301
573.811	297
574.023	277
574.234	286
574.445	285
574.656	291
574.867	274
575.078	287
575.289	285
575.501	304
575.712	277
575.923	290
576.134	297
576.345	281
576.556	295
576.767	274
576.978	291
577.188	291
577.399	317
577.61	292
577.821	295
578.032	294
578.243	338
578.454	610
578.665	430
578.875	323
579.086	288
579.297	269
579.508	274
579.718	286
579.929	268
580.14	273
580.35	288
580.561	282
580.772	270
580.982	265
581.193	263
581.403	279
581.614	285
581.825	272
582.035	261
582.246	291
582.456	275
582.667	262
582.877	285
583.087	282
583.298	261
583.508	249
583.719	264
583.929	264
584.139	264
584.35	282
584.56	273
584.77	258
584.981	265
585.191	258
585.401	245
585.611	249
585.821	254
586.032	273
586.242	261
586.452	264
586.662	274
586.872	258
587.082	250
587.292	248
587.502	269
587.713	264
587.923	276
588.133	264
588.343	260
588.553	262
588.762	229
588.972	251
589.182	272
589.392	282
589.602	253
589.812	270
590.022	264
590.232	264
590.441	252
590.651	293
590.861	262
591.071	262
591.281	266
591.49	260
591.7	267
591.91	270
592.119	261
592.329	254
592.539	284
592.748	285
592.958	268
593.167	266
593.377	259
593.587	263
593.796	264
594.006	246
594.215	240
594.424	256
594.634	260
594.843	264
595.053	248
595.262	245
595.472	245
595.681	251
595.89	241
596.1	233
596.309	263
596.518	235
596.727	268
596.937	253
597.146	241
597.355	234
597.564	254
597.774	246
597.983	243
598.192	235
598.401	235
598.61	237
598.819	242
599.028	237
599.237	232
599.446	230
599.655	228
599.864	240
600.073	232
600.282	224
600.491	235
600.7	227
600.909	228
601.118	240
601.327	224
601.536	220
601.745	225
601.953	227
602.162	217
602.371	220
602.58	211
602.789	224
602.997	247
603.206	225
603.415	232
603.623	228
603.832	220
604.041	213
604.249	229
604.458	227
604.666	212
604.875	220
605.084	240
605.292	221
605.501	216
605.709	208
605.918	229
606.126	226
606.334	216
606.543	227
606.751	195
606.96	207
607.168	226
607.376	220
607.585	209
607.793	217
608.001	224
608.21	216
608.418	223
608.626	213
608.834	211
609.043	232
609.251	211
609.459	227
609.667	220
609.875	214
610.083	220
610.291	225
610.499	214
610.707	220
610.916	220
611.124	218
611.332	230
611.54	217
611.748	217
611.955	212
612.163	215
612.371	224
612.579	218
612.787	210
612.995	211
613.203	228
613.411	222
613.618	212
613.826	217
614.034	204
614.242	203
614.449	212
614.657	192
614.865	208
615.072	216
615.28	210
615.488	208
615.695	209
615.903	212
616.111	215
616.318	224
616.526	219
616.733	206
616.941	190
617.148	206
617.356	214
617.563	196
617.771	204
617.978	192
618.185	206
618.393	217
618.6	207
618.807	198
619.015	228
619.222	213
619.429	202
619.637	209
619.844	204
620.051	195
620.258	193
620.466	204
620.673	210
620.88	207
621.087	198
621.294	178
621.501	202
621.708	193
621.915	206
622.122	193
622.329	197
622.536	194
622.743	198
622.95	200
623.157	203
623.364	203
623.571	215
623.778	212
623.985	195
624.192	200
624.399	189
624.606	192
624.812	193
625.019	186
625.226	203
625.433	205
625.639	194
625.846	172
626.053	194
626.259	194
626.466	191
626.673	188
626.879	190
627.086	174
627.293	194
627.499	212
627.706	181
627.912	188
628.119	184
628.325	189
628.532	183
628.738	171
628.945	185
629.151	173
629.357	178
629.564	175
629.77	189
629.976	163
630.183	182
630.389	169
630.595	169
630.802	168
631.008	189
631.214	169
631.42	197
631.627	168
631.833	184
632.039	172
632.245	191
632.451	174
632.657	176
632.863	172
633.069	164
633.275	151
633.481	169
633.688	181
633.893	162
634.099	168
634.305	162
634.511	176
634.717	182
634.923	148
635.129	160
635.335	160
635.541	179
635.747	190
635.952	169
636.158	152
636.364	180
636.57	167
636.775	173
636.981	174
637.187	169
637.392	164
637.598	157
637.804	164
638.009	170
638.215	179
638.421	154
638.626	166
638.832	158
639.037	163
639.243	162
639.448	153
639.654	154
639.859	165
640.065	144
640.27	149
640.475	160
640.681	152
640.886	165
641.091	160
641.297	168
641.502	156
641.707	158
641.913	156
642.118	160
642.323	151
642.528	171
642.733	164
642.939	152
643.144	157
643.349	166
643.554	144
643.759	160
643.964	149
644.169	176
644.374	156
644.579	162
644.784	140
644.989	141
645.194	155
645.399	149
645.604	152
645.809	165
646.014	170
646.219	160
646.423	152
646.628	162
646.833	143
647.038	152
647.243	152
647.447	148
647.652	162
647.857	167
648.062	132
648.266	146
648.471	156
648.676	158
648.88	153
649.085	160
649.289	154
649.494	165
649.698	182
649.903	181
650.107	151
650.312	165
650.516	150
650.721	156
650.925	134
651.13	143
651.334	144
651.539	136
651.743	144
651.947	132
652.152	138
652.356	140
652.56	130
652.764	141
652.969	132
653.173	122
653.377	124
653.581	122
653.785	123
653.99	125
654.194	134
654.398	126
654.602	133
654.806	125
655.01	129
655.214	139
655.418	131
655.622	126
655.826	121
656.03	115
656.234	136
656.438	134
656.642	122
656.846	114
657.049	116
657.253	117
657.457	113
657.661	117
657.865	105
658.068	105
658.272	96
658.476	105
658.68	97
658.883	110
659.087	107
659.291	93
659.494	111
659.698	100
659.901	99
660.105	87
660.309	85
660.512	97
660.716	90
660.919	101
661.123	101
661.326	91
661.53	83
661.733	93
661.936	87
662.14	76
662.343	82
662.546	86
662.75	89
662.953	75
663.156	91
663.36	78
663.563	93
663.766	90
663.969	79
664.173	84
664.376	83
664.579	73
664.782	69
664.985	88
665.188	85
665.391	107
665.594	87
665.797	73
666	86
666.203	75
666.406	85
666.609	82
666.812	91
667.015	72
667.218	72
667.421	71
667.624	81
667.827	82
668.03	80
668.232	85
668.435	94
668.638	82
668.841	82
669.043	81
669.246	87
669.449	85
669.651	82
669.854	78
670.057	85
670.259	89
670.462	91
670.665	83
670.867	84
671.07	80
671.272	92
671.475	93
671.677	74
671.88	85
672.082	84
672.284	88
672.487	93
672.689	76
672.892	103
