Data from 1987.PennyLincolnUp.Lamp.En5.5.200Scan.071819.P2_HRD10591_17-15-19-970.txt Node
Date: Thu Jul 18 17:15:19 EDT 2019
User: cochatt
Spectrometer: HR+D1059
Trigger mode: 1
Integration Time (sec): 1.000000E-1
Scans to average: 1
Electric dark correction enabled: true
Nonlinearity correction enabled: false
Boxcar width: 0
XAxis mode: Wavelengths
Number of Pixels in Spectrum: 2048
>>>>>Begin Spectral Data<<<<<
223.165	-17
223.4	-17
223.635	-17
223.869	-8
224.104	-29
224.338	-16
224.573	-10
224.808	-5
225.042	3
225.277	1
225.511	-5
225.746	-9
225.98	-2
226.215	8
226.449	16
226.683	21
226.918	28
227.152	24
227.387	41
227.621	32
227.856	48
228.09	47
228.324	44
228.559	40
228.793	74
229.027	116
229.262	101
229.496	116
229.73	142
229.964	168
230.199	143
230.433	121
230.667	115
230.901	126
231.136	124
231.37	110
231.604	117
231.838	114
232.072	116
232.306	125
232.541	115
232.775	133
233.009	96
233.243	115
233.477	105
233.711	126
233.945	121
234.179	128
234.413	128
234.647	117
234.881	124
235.115	116
235.349	104
235.583	128
235.817	140
236.051	133
236.285	128
236.519	128
236.753	133
236.987	151
237.221	206
237.455	258
237.689	188
237.922	146
238.156	146
238.39	145
238.624	120
238.858	129
239.091	136
239.325	125
239.559	111
239.793	114
240.027	126
240.26	152
240.494	170
240.728	142
240.961	153
241.195	142
241.429	151
241.662	142
241.896	145
242.13	137
242.363	127
242.597	130
242.83	136
243.064	123
243.298	138
243.531	151
243.765	138
243.998	139
244.232	127
244.465	128
244.699	128
244.932	141
245.166	143
245.399	135
245.633	137
245.866	147
246.099	126
246.333	151
246.566	144
246.8	134
247.033	159
247.266	160
247.5	174
247.733	161
247.966	164
248.2	163
248.433	168
248.666	171
248.899	171
249.133	204
249.366	214
249.599	200
249.832	202
250.066	176
250.299	177
250.532	177
250.765	205
250.998	215
251.231	220
251.465	192
251.698	195
251.931	193
252.164	205
252.397	208
252.63	194
252.863	210
253.096	209
253.329	230
253.562	229
253.795	218
254.028	225
254.261	210
254.494	208
254.727	248
254.96	290
255.193	260
255.426	247
255.659	241
255.892	237
256.124	209
256.357	216
256.59	209
256.823	190
257.056	201
257.289	202
257.521	202
257.754	187
257.987	201
258.22	191
258.452	186
258.685	182
258.918	198
259.151	209
259.383	191
259.616	201
259.849	209
260.081	218
260.314	236
260.547	258
260.779	230
261.012	227
261.244	230
261.477	223
261.71	220
261.942	233
262.175	233
262.407	226
262.64	205
262.872	209
263.105	203
263.337	191
263.57	206
263.802	198
264.035	200
264.267	197
264.499	190
264.732	185
264.964	192
265.197	200
265.429	180
265.661	189
265.894	190
266.126	186
266.358	206
266.591	207
266.823	208
267.055	201
267.287	219
267.52	198
267.752	193
267.984	213
268.216	217
268.448	215
268.681	205
268.913	218
269.145	222
269.377	251
269.609	251
269.841	248
270.073	265
270.306	283
270.538	297
270.77	309
271.002	297
271.234	280
271.466	289
271.698	302
271.93	329
272.162	301
272.394	305
272.626	293
272.858	281
273.09	272
273.322	264
273.553	250
273.785	248
274.017	242
274.249	233
274.481	244
274.713	225
274.945	249
275.176	258
275.408	248
275.64	250
275.872	226
276.104	249
276.335	234
276.567	267
276.799	244
277.031	289
277.262	285
277.494	293
277.726	266
277.957	264
278.189	256
278.421	242
278.652	228
278.884	242
279.115	242
279.347	230
279.579	242
279.81	233
280.042	247
280.273	229
280.505	228
280.736	227
280.968	225
281.199	218
281.431	235
281.662	234
281.894	239
282.125	258
282.356	250
282.588	291
282.819	292
283.051	258
283.282	231
283.513	220
283.745	240
283.976	241
284.207	235
284.439	239
284.67	236
284.901	234
285.132	216
285.364	227
285.595	242
285.826	247
286.057	225
286.288	247
286.52	214
286.751	239
286.982	213
287.213	233
287.444	236
287.675	247
287.906	249
288.138	257
288.369	257
288.6	255
288.831	239
289.062	241
289.293	267
289.524	236
289.755	238
289.986	257
290.217	232
290.448	235
290.679	224
290.91	228
291.141	226
291.371	239
291.602	237
291.833	239
292.064	239
292.295	228
292.526	236
292.757	243
292.987	239
293.218	233
293.449	249
293.68	257
293.91	245
294.141	249
294.372	212
294.603	220
294.833	235
295.064	235
295.295	231
295.525	246
295.756	235
295.987	249
296.217	289
296.448	309
296.679	269
296.909	245
297.14	257
297.37	226
297.601	253
297.831	246
298.062	268
298.292	249
298.523	267
298.753	244
298.984	254
299.214	261
299.445	257
299.675	261
299.905	263
300.136	238
300.366	256
300.597	264
300.827	284
301.057	269
301.288	283
301.518	288
301.748	269
301.979	261
302.209	270
302.439	277
302.669	271
302.9	261
303.13	246
303.36	280
303.59	280
303.82	280
304.051	292
304.281	281
304.511	268
304.741	262
304.971	272
305.201	261
305.431	264
305.661	268
305.891	269
306.121	264
306.352	288
306.582	287
306.812	278
307.042	273
307.272	280
307.502	273
307.731	285
307.961	272
308.191	284
308.421	280
308.651	269
308.881	292
309.111	299
309.341	292
309.571	326
309.8	292
310.03	335
310.26	350
310.49	348
310.72	349
310.949	369
311.179	374
311.409	346
311.639	337
311.868	333
312.098	340
312.328	358
312.557	374
312.787	397
313.017	404
313.246	350
313.476	354
313.706	346
313.935	343
314.165	382
314.394	378
314.624	359
314.853	364
315.083	339
315.312	318
315.542	331
315.771	312
316.001	318
316.23	312
316.46	322
316.689	332
316.919	355
317.148	369
317.377	350
317.607	340
317.836	336
318.065	321
318.295	326
318.524	343
318.753	336
318.983	327
319.212	346
319.441	369
319.67	362
319.9	352
320.129	317
320.358	347
320.587	349
320.816	344
321.046	350
321.275	363
321.504	358
321.733	380
321.962	384
322.191	399
322.42	412
322.649	428
322.878	467
323.108	460
323.337	494
323.566	537
323.795	594
324.024	664
324.253	848
324.482	1215
324.71	1851
324.939	2622
325.168	2298
325.397	1225
325.626	810
325.855	649
326.084	571
326.313	530
326.542	548
326.77	611
326.999	733
327.228	1050
327.457	1578
327.686	1968
327.914	1362
328.143	858
328.372	728
328.6	667
328.829	624
329.058	645
329.287	640
329.515	609
329.744	544
329.972	505
330.201	509
330.43	558
330.658	593
330.887	686
331.115	679
331.344	558
331.572	478
331.801	481
332.03	501
332.258	414
332.486	406
332.715	401
332.943	412
333.172	403
333.4	380
333.629	393
333.857	402
334.085	400
334.314	385
334.542	375
334.771	399
334.999	413
335.227	399
335.455	387
335.684	378
335.912	389
336.14	384
336.369	367
336.597	382
336.825	411
337.053	390
337.281	371
337.51	387
337.738	368
337.966	384
338.194	389
338.422	391
338.65	366
338.878	370
339.106	357
339.334	358
339.562	368
339.79	376
340.018	364
340.246	382
340.474	389
340.702	391
340.93	389
341.158	359
341.386	384
341.614	392
341.842	368
342.07	363
342.298	349
342.526	354
342.754	353
342.981	360
343.209	354
343.437	352
343.665	366
343.893	349
344.12	345
344.348	365
344.576	366
344.804	363
345.031	401
345.259	416
345.487	402
345.714	398
345.942	381
346.17	372
346.397	357
346.625	374
346.853	359
347.08	382
347.308	364
347.535	386
347.763	408
347.99	402
348.218	385
348.445	406
348.673	384
348.9	372
349.128	358
349.355	330
349.583	345
349.81	347
350.037	359
350.265	330
350.492	352
350.72	351
350.947	378
351.174	392
351.402	392
351.629	380
351.856	384
352.083	411
352.311	400
352.538	423
352.765	417
352.992	409
353.22	392
353.447	370
353.674	368
353.901	345
354.128	340
354.355	325
354.583	328
354.81	344
355.037	351
355.264	330
355.491	328
355.718	324
355.945	326
356.172	339
356.399	331
356.626	319
356.853	334
357.08	327
357.307	317
357.534	354
357.761	343
357.988	312
358.215	327
358.441	323
358.668	339
358.895	347
359.122	339
359.349	350
359.576	386
359.802	411
360.029	451
360.256	487
360.483	453
360.709	402
360.936	387
361.163	384
361.39	380
361.616	387
361.843	359
362.07	402
362.296	383
362.523	370
362.749	384
362.976	374
363.203	349
363.429	364
363.656	347
363.882	330
364.109	336
364.335	364
364.562	329
364.788	338
365.015	361
365.241	370
365.468	355
365.694	368
365.92	351
366.147	359
366.373	345
366.599	335
366.826	333
367.052	348
367.278	351
367.505	342
367.731	354
367.957	337
368.184	341
368.41	357
368.636	382
368.862	364
369.089	336
369.315	344
369.541	338
369.767	358
369.993	345
370.219	356
370.445	354
370.672	323
370.898	330
371.124	328
371.35	325
371.576	324
371.802	337
372.028	325
372.254	337
372.48	338
372.706	338
372.932	325
373.158	328
373.384	346
373.61	361
373.835	344
374.061	325
374.287	334
374.513	351
374.739	343
374.965	323
375.191	339
375.416	341
375.642	320
375.868	330
376.094	329
376.319	313
376.545	320
376.771	330
376.997	321
377.222	330
377.448	318
377.674	337
377.899	332
378.125	322
378.35	323
378.576	305
378.802	334
379.027	324
379.253	335
379.478	319
379.704	339
379.929	334
380.155	341
380.38	331
380.606	329
380.831	333
381.057	325
381.282	330
381.507	350
381.733	349
381.958	349
382.184	335
382.409	345
382.634	339
382.86	326
383.085	328
383.31	335
383.535	348
383.761	348
383.986	345
384.211	356
384.436	333
384.662	352
384.887	346
385.112	344
385.337	346
385.562	333
385.787	332
386.013	358
386.238	354
386.463	356
386.688	347
386.913	332
387.138	357
387.363	352
387.588	341
387.813	339
388.038	331
388.263	347
388.488	351
388.713	341
388.938	345
389.163	366
389.387	368
389.612	331
389.837	335
390.062	353
390.287	345
390.512	353
390.736	327
390.961	328
391.186	342
391.411	342
391.636	345
391.86	351
392.085	347
392.31	365
392.534	359
392.759	368
392.984	344
393.208	352
393.433	359
393.658	363
393.882	346
394.107	359
394.331	342
394.556	351
394.78	340
395.005	359
395.229	356
395.454	366
395.678	365
395.903	357
396.127	390
396.352	408
396.576	372
396.801	351
397.025	358
397.249	369
397.474	380
397.698	366
397.922	384
398.147	402
398.371	418
398.595	374
398.82	376
399.044	378
399.268	394
399.492	430
399.717	429
399.941	456
400.165	494
400.389	501
400.613	452
400.837	439
401.062	414
401.286	410
401.51	406
401.734	391
401.958	398
402.182	418
402.406	428
402.63	428
402.854	430
403.078	406
403.302	405
403.526	427
403.75	422
403.974	411
404.198	409
404.422	416
404.645	423
404.869	435
405.093	419
405.317	468
405.541	494
405.765	448
405.988	422
406.212	458
406.436	481
406.66	498
406.883	489
407.107	503
407.331	536
407.555	614
407.778	584
408.002	519
408.226	484
408.449	491
408.673	495
408.896	479
409.12	549
409.344	540
409.567	444
409.791	444
410.014	417
410.238	414
410.461	448
410.685	424
410.908	455
411.132	514
411.355	546
411.578	485
411.802	436
412.025	414
412.249	417
412.472	402
412.695	424
412.919	420
413.142	409
413.365	401
413.589	408
413.812	406
414.035	409
414.258	393
414.482	410
414.705	403
414.928	392
415.151	394
415.374	401
415.597	407
415.821	397
416.044	412
416.267	420
416.49	412
416.713	422
416.936	390
417.159	400
417.382	413
417.605	402
417.828	430
418.051	440
418.274	420
418.497	422
418.72	434
418.943	399
419.166	432
419.389	433
419.611	431
419.834	427
420.057	443
420.28	421
420.503	436
420.726	448
420.948	442
421.171	487
421.394	513
421.617	476
421.839	444
422.062	456
422.285	451
422.507	486
422.73	581
422.953	583
423.175	495
423.398	473
423.621	480
423.843	493
424.066	468
424.288	481
424.511	505
424.733	569
424.956	655
425.178	649
425.401	631
425.623	642
425.846	572
426.068	516
426.291	510
426.513	491
426.735	522
426.958	589
427.18	652
427.402	743
427.625	845
427.847	806
428.069	654
428.292	592
428.514	523
428.736	501
428.958	506
429.181	456
429.403	477
429.625	494
429.847	520
430.069	584
430.292	608
430.514	541
430.736	480
430.958	454
431.18	431
431.402	444
431.624	438
431.846	413
432.068	442
432.29	440
432.512	431
432.734	454
432.956	454
433.178	439
433.4	456
433.622	432
433.844	441
434.066	426
434.287	431
434.509	440
434.731	455
434.953	465
435.175	471
435.397	488
435.618	529
435.84	563
436.062	638
436.284	692
436.505	589
436.727	537
436.949	476
437.17	466
437.392	469
437.614	489
437.835	545
438.057	642
438.278	732
438.5	748
438.721	762
438.943	754
439.165	603
439.386	577
439.608	539
439.829	553
440.05	584
440.272	628
440.493	573
440.715	535
440.936	484
441.158	489
441.379	468
441.6	500
441.822	528
442.043	544
442.264	640
442.486	677
442.707	601
442.928	525
443.149	539
443.371	566
443.592	608
443.813	687
444.034	745
444.255	593
444.476	554
444.698	514
444.919	491
445.14	610
445.361	545
445.582	576
445.803	644
446.024	728
446.245	715
446.466	680
446.687	586
446.908	544
447.129	498
447.35	476
447.571	507
447.792	488
448.013	498
448.234	541
448.455	576
448.675	664
448.896	781
449.117	681
449.338	635
449.559	719
449.779	815
450	662
450.221	546
450.442	493
450.662	474
450.883	511
451.104	534
451.324	536
451.545	501
451.766	467
451.986	457
452.207	417
452.428	405
452.648	441
452.869	444
453.089	452
453.31	442
453.53	433
453.751	439
453.971	457
454.192	492
454.412	474
454.633	428
454.853	452
455.073	455
455.294	464
455.514	526
455.734	535
455.955	440
456.175	428
456.395	388
456.616	401
456.836	393
457.056	405
457.276	398
457.497	387
457.717	405
457.937	396
458.157	411
458.377	414
458.598	448
458.818	520
459.038	633
459.258	636
459.478	523
459.698	462
459.918	440
460.138	424
460.358	420
460.578	440
460.798	425
461.018	430
461.238	412
461.458	416
461.678	415
461.898	425
462.118	422
462.338	414
462.558	431
462.777	431
462.997	443
463.217	430
463.437	448
463.657	449
463.876	418
464.096	414
464.316	438
464.536	454
464.755	459
464.975	463
465.195	554
465.414	700
465.634	560
465.854	521
466.073	464
466.293	444
466.512	432
466.732	432
466.951	426
467.171	420
467.391	413
467.61	448
467.829	444
468.049	437
468.268	427
468.488	411
468.707	392
468.927	415
469.146	401
469.365	408
469.585	410
469.804	421
470.023	456
470.243	417
470.462	454
470.681	476
470.901	461
471.12	436
471.339	441
471.558	442
471.777	437
471.997	424
472.216	418
472.435	413
472.654	439
472.873	420
473.092	428
473.311	412
473.53	441
473.749	442
473.968	490
474.187	612
474.406	615
474.625	522
474.844	472
475.063	441
475.282	454
475.501	450
475.72	458
475.939	426
476.158	444
476.377	416
476.596	448
476.814	454
477.033	457
477.252	471
477.471	439
477.69	462
477.908	459
478.127	465
478.346	472
478.564	460
478.783	455
479.002	477
479.22	479
479.439	493
479.658	525
479.876	528
480.095	542
480.313	543
480.532	532
480.751	508
480.969	513
481.188	495
481.406	534
481.624	509
481.843	522
482.061	522
482.28	501
482.498	506
482.717	498
482.935	490
483.153	500
483.372	522
483.59	500
483.808	505
484.027	492
484.245	502
484.463	530
484.681	522
484.9	501
485.118	502
485.336	529
485.554	506
485.772	537
485.99	547
486.209	552
486.427	560
486.645	565
486.863	594
487.081	593
487.299	582
487.517	574
487.735	540
487.953	544
488.171	537
488.389	572
488.607	555
488.825	543
489.043	572
489.261	560
489.479	568
489.696	574
489.914	571
490.132	569
490.35	572
490.568	580
490.786	610
491.003	594
491.221	613
491.439	628
491.657	630
491.874	630
492.092	643
492.31	639
492.527	645
492.745	644
492.963	664
493.18	657
493.398	644
493.615	652
493.833	664
494.05	667
494.268	668
494.485	667
494.703	662
494.92	684
495.138	672
495.355	666
495.573	673
495.79	688
496.008	670
496.225	664
496.442	666
496.66	658
496.877	683
497.094	694
497.312	660
497.529	657
497.746	705
497.963	704
498.181	708
498.398	716
498.615	726
498.832	720
499.049	729
499.267	721
499.484	726
499.701	755
499.918	758
500.135	777
500.352	800
500.569	780
500.786	790
501.003	802
501.22	791
501.437	790
501.654	776
501.871	813
502.088	804
502.305	766
502.522	733
502.739	726
502.956	689
503.172	684
503.389	715
503.606	683
503.823	717
504.04	695
504.256	704
504.473	682
504.69	660
504.907	667
505.123	658
505.34	678
505.557	661
505.773	666
505.99	677
506.207	666
506.423	658
506.64	664
506.856	669
507.073	672
507.289	650
507.506	640
507.722	647
507.939	726
508.155	700
508.372	676
508.588	659
508.805	663
509.021	663
509.238	651
509.454	672
509.67	652
509.887	671
510.103	660
510.319	679
510.536	817
510.752	1535
510.968	1261
511.184	756
511.401	674
511.617	660
511.833	621
512.049	612
512.265	633
512.481	624
512.698	619
512.914	637
513.13	632
513.346	654
513.562	652
513.778	634
513.994	663
514.21	698
514.426	721
514.642	805
514.858	846
515.074	938
515.29	1160
515.506	1824
515.721	1446
515.937	895
516.153	775
516.369	702
516.585	671
516.801	678
517.016	659
517.232	668
517.448	651
517.664	646
517.879	656
518.095	617
518.311	630
518.527	634
518.742	644
518.958	618
519.173	630
519.389	628
519.605	635
519.82	678
520.036	682
520.251	721
520.467	792
520.682	743
520.898	783
521.113	844
521.329	914
521.544	1081
521.76	1487
521.975	2472
522.19	2452
522.406	1242
522.621	866
522.836	753
523.052	696
523.267	660
523.482	624
523.698	596
523.913	628
524.128	606
524.343	583
524.559	587
524.774	565
524.989	547
525.204	575
525.419	571
525.634	572
525.849	558
526.064	514
526.28	519
526.495	512
526.71	514
526.925	527
527.14	488
527.355	493
527.57	488
527.785	487
527.999	496
528.214	500
528.429	501
528.644	488
528.859	472
529.074	477
529.289	550
529.503	665
529.718	662
529.933	576
530.148	536
530.363	526
530.577	508
530.792	497
531.007	501
531.221	484
531.436	471
531.651	479
531.865	479
532.08	476
532.295	480
532.509	463
532.724	463
532.938	476
533.153	449
533.367	446
533.582	465
533.796	480
534.011	452
534.225	447
534.44	464
534.654	443
534.868	461
535.083	441
535.297	451
535.511	480
535.726	502
535.94	482
536.154	482
536.369	457
536.583	456
536.797	439
537.011	426
537.225	430
537.44	442
537.654	436
537.868	454
538.082	442
538.296	437
538.51	438
538.724	429
538.938	443
539.153	438
539.367	464
539.581	462
539.795	452
540.009	433
540.222	432
540.436	440
540.65	442
540.864	438
541.078	459
541.292	456
541.506	448
541.72	427
541.934	416
542.147	448
542.361	412
542.575	454
542.789	422
543.002	425
543.216	445
543.43	436
543.644	424
543.857	452
544.071	420
544.285	439
544.498	433
544.712	428
544.925	416
545.139	425
545.352	430
545.566	425
545.779	409
545.993	414
546.206	397
546.42	421
546.633	405
546.847	409
547.06	394
547.274	410
547.487	403
547.7	382
547.914	398
548.127	397
548.34	395
548.554	413
548.767	402
548.98	398
549.193	395
549.407	395
549.62	388
549.833	412
550.046	407
550.259	398
550.473	400
550.686	392
550.899	396
551.112	391
551.325	394
551.538	375
551.751	382
551.964	384
552.177	393
552.39	387
552.603	373
552.816	378
553.029	396
553.242	396
553.455	393
553.667	428
553.88	417
554.093	417
554.306	404
554.519	402
554.732	387
554.944	392
555.157	384
555.37	393
555.583	375
555.795	390
556.008	386
556.221	377
556.433	372
556.646	368
556.859	360
557.071	369
557.284	372
557.496	361
557.709	364
557.921	359
558.134	357
558.346	379
558.559	366
558.771	352
558.984	367
559.196	363
559.409	361
559.621	359
559.833	373
560.046	350
560.258	353
560.47	344
560.683	365
560.895	346
561.107	353
561.32	363
561.532	345
561.744	363
561.956	339
562.168	345
562.381	344
562.593	348
562.805	360
563.017	365
563.229	351
563.441	365
563.653	364
563.865	359
564.077	367
564.289	362
564.501	349
564.713	364
564.925	390
565.137	381
565.349	382
565.561	381
565.773	369
565.985	382
566.197	372
566.408	366
566.62	400
566.832	374
567.044	376
567.255	382
567.467	389
567.679	377
567.891	386
568.102	386
568.314	381
568.526	365
568.737	368
568.949	374
569.161	372
569.372	357
569.584	375
569.795	344
570.007	346
570.218	447
570.43	425
570.641	370
570.853	338
571.064	356
571.276	342
571.487	348
571.698	340
571.91	319
572.121	323
572.333	322
572.544	310
572.755	295
572.966	326
573.178	335
573.389	320
573.6	329
573.811	313
574.023	309
574.234	313
574.445	326
574.656	338
574.867	332
575.078	285
575.289	283
575.501	297
575.712	306
575.923	300
576.134	313
576.345	293
576.556	297
576.767	294
576.978	320
577.188	305
577.399	308
577.61	312
577.821	304
578.032	324
578.243	395
578.454	715
578.665	518
578.875	325
579.086	294
579.297	289
579.508	292
579.718	290
579.929	297
580.14	284
580.35	295
580.561	281
580.772	295
580.982	305
581.193	278
581.403	280
581.614	289
581.825	294
582.035	293
582.246	296
582.456	282
582.667	287
582.877	280
583.087	277
583.298	273
583.508	277
583.719	299
583.929	296
584.139	291
584.35	283
584.56	288
584.77	290
584.981	298
585.191	284
585.401	266
585.611	253
585.821	274
586.032	283
586.242	279
586.452	262
586.662	261
586.872	284
587.082	276
587.292	272
587.502	270
587.713	273
587.923	273
588.133	286
588.343	276
588.553	254
588.762	273
588.972	278
589.182	294
589.392	306
589.602	269
589.812	292
590.022	299
590.232	262
590.441	273
590.651	262
590.861	255
591.071	278
591.281	274
591.49	280
591.7	267
591.91	271
592.119	265
592.329	285
592.539	273
592.748	268
592.958	263
593.167	260
593.377	271
593.587	271
593.796	265
594.006	275
594.215	265
594.424	268
594.634	273
594.843	261
595.053	254
595.262	259
595.472	248
595.681	265
595.89	268
596.1	254
596.309	267
596.518	264
596.727	260
596.937	257
597.146	273
597.355	259
597.564	237
597.774	248
597.983	226
598.192	249
598.401	256
598.61	248
598.819	269
599.028	240
599.237	256
599.446	238
599.655	235
599.864	230
600.073	235
600.282	242
600.491	248
600.7	236
600.909	257
601.118	233
601.327	251
601.536	238
601.745	230
601.953	256
602.162	255
602.371	228
602.58	248
602.789	236
602.997	235
603.206	240
603.415	240
603.623	229
603.832	213
604.041	225
604.249	226
604.458	217
604.666	221
604.875	234
605.084	234
605.292	224
605.501	242
605.709	226
605.918	214
606.126	238
606.334	233
606.543	244
606.751	229
606.96	229
607.168	245
607.376	231
607.585	228
607.793	230
608.001	248
608.21	225
608.418	218
608.626	222
608.834	208
609.043	264
609.251	219
609.459	225
609.667	216
609.875	217
610.083	232
610.291	224
610.499	217
610.707	219
610.916	225
611.124	230
611.332	226
611.54	241
611.748	239
611.955	231
612.163	200
612.371	198
612.579	217
612.787	215
612.995	214
613.203	238
613.411	219
613.618	221
613.826	218
614.034	221
614.242	211
614.449	212
614.657	210
614.865	225
615.072	206
615.28	225
615.488	209
615.695	230
615.903	219
616.111	206
616.318	223
616.526	218
616.733	217
616.941	211
617.148	202
617.356	223
617.563	209
617.771	197
617.978	220
618.185	212
618.393	227
618.6	212
618.807	218
619.015	204
619.222	200
619.429	203
619.637	225
619.844	221
620.051	203
620.258	210
620.466	192
620.673	206
620.88	209
621.087	213
621.294	207
621.501	207
621.708	200
621.915	209
622.122	221
622.329	216
622.536	204
622.743	226
622.95	201
623.157	215
623.364	206
623.571	225
623.778	228
623.985	201
624.192	203
624.399	197
624.606	175
624.812	205
625.019	206
625.226	200
625.433	214
625.639	187
625.846	208
626.053	186
626.259	198
626.466	202
626.673	194
626.879	205
627.086	163
627.293	198
627.499	194
627.706	181
627.912	175
628.119	198
628.325	203
628.532	188
628.738	177
628.945	172
629.151	174
629.357	193
629.564	191
629.77	192
629.976	193
630.183	189
630.389	199
630.595	179
630.802	196
631.008	169
631.214	189
631.42	174
631.627	198
631.833	184
632.039	198
632.245	158
632.451	162
632.657	165
632.863	182
633.069	185
633.275	175
633.481	184
633.688	177
633.893	175
634.099	183
634.305	182
634.511	191
634.717	183
634.923	150
635.129	184
635.335	174
635.541	172
635.747	160
635.952	181
636.158	154
636.364	184
636.57	168
636.775	185
636.981	182
637.187	170
637.392	185
637.598	172
637.804	161
638.009	167
638.215	167
638.421	162
638.626	172
638.832	176
639.037	170
639.243	161
639.448	166
639.654	175
639.859	166
640.065	183
640.27	180
640.475	156
640.681	158
640.886	165
641.091	150
641.297	165
641.502	151
641.707	157
641.913	167
642.118	189
642.323	156
642.528	171
642.733	164
642.939	165
643.144	158
643.349	155
643.554	162
643.759	169
643.964	159
644.169	173
644.374	153
644.579	157
644.784	155
644.989	157
645.194	163
645.399	154
645.604	156
645.809	158
646.014	155
646.219	162
646.423	166
646.628	154
646.833	160
647.038	168
647.243	165
647.447	164
647.652	161
647.857	170
648.062	162
648.266	157
648.471	152
648.676	156
648.88	170
649.085	164
649.289	156
649.494	171
649.698	177
649.903	170
650.107	170
650.312	166
650.516	155
650.721	141
650.925	140
651.13	138
651.334	144
651.539	142
651.743	136
651.947	146
652.152	147
652.356	149
652.56	140
652.764	136
652.969	134
653.173	139
653.377	129
653.581	134
653.785	132
653.99	136
654.194	147
654.398	128
654.602	130
654.806	146
655.01	130
655.214	110
655.418	122
655.622	121
655.826	141
656.03	122
656.234	140
656.438	134
656.642	124
656.846	113
657.049	114
657.253	115
657.457	94
657.661	111
657.865	110
658.068	121
658.272	107
658.476	114
658.68	101
658.883	98
659.087	98
659.291	96
659.494	95
659.698	111
659.901	106
660.105	102
660.309	97
660.512	95
660.716	104
660.919	91
661.123	108
661.326	103
661.53	92
661.733	117
661.936	84
662.14	82
662.343	77
662.546	90
662.75	100
662.953	97
663.156	87
663.36	89
663.563	82
663.766	86
663.969	104
664.173	87
664.376	78
664.579	81
664.782	92
664.985	82
665.188	85
665.391	90
665.594	96
665.797	95
666	80
666.203	84
666.406	86
666.609	88
666.812	103
667.015	87
667.218	97
667.421	92
667.624	81
667.827	80
668.03	86
668.232	85
668.435	82
668.638	90
668.841	85
669.043	89
669.246	90
669.449	79
669.651	77
669.854	80
670.057	88
670.259	88
670.462	87
670.665	92
670.867	81
671.07	81
671.272	81
671.475	94
671.677	94
671.88	74
672.082	81
672.284	101
672.487	75
672.689	85
672.892	87
