Data from 1988.PennyLincolnUp.Lamp.En5.5.200Scan.071819.P2_HRD10591_17-21-01-972.txt Node
Date: Thu Jul 18 17:21:01 EDT 2019
User: cochatt
Spectrometer: HR+D1059
Trigger mode: 1
Integration Time (sec): 1.000000E-1
Scans to average: 1
Electric dark correction enabled: true
Nonlinearity correction enabled: false
Boxcar width: 0
XAxis mode: Wavelengths
Number of Pixels in Spectrum: 2048
>>>>>Begin Spectral Data<<<<<
223.165	-16
223.4	-16
223.635	-16
223.869	-23
224.104	-22
224.338	-19
224.573	-11
224.808	-5
225.042	-1
225.277	-17
225.511	-4
225.746	4
225.98	6
226.215	18
226.449	12
226.683	22
226.918	16
227.152	40
227.387	45
227.621	43
227.856	37
228.09	40
228.324	50
228.559	57
228.793	66
229.027	94
229.262	110
229.496	120
229.73	134
229.964	162
230.199	135
230.433	127
230.667	135
230.901	136
231.136	118
231.37	128
231.604	126
231.838	111
232.072	120
232.306	122
232.541	128
232.775	119
233.009	122
233.243	114
233.477	122
233.711	128
233.945	119
234.179	123
234.413	118
234.647	121
234.881	134
235.115	118
235.349	131
235.583	131
235.817	127
236.051	140
236.285	139
236.519	137
236.753	152
236.987	162
237.221	201
237.455	272
237.689	212
237.922	159
238.156	150
238.39	144
238.624	130
238.858	126
239.091	139
239.325	150
239.559	136
239.793	135
240.027	151
240.26	148
240.494	147
240.728	171
240.961	173
241.195	164
241.429	159
241.662	149
241.896	142
242.13	149
242.363	144
242.597	147
242.83	148
243.064	137
243.298	142
243.531	140
243.765	141
243.998	160
244.232	162
244.465	148
244.699	180
244.932	165
245.166	162
245.399	162
245.633	169
245.866	161
246.099	154
246.333	155
246.566	159
246.8	162
247.033	145
247.266	171
247.5	174
247.733	183
247.966	174
248.2	194
248.433	181
248.666	170
248.899	204
249.133	229
249.366	226
249.599	199
249.832	175
250.066	194
250.299	188
250.532	197
250.765	217
250.998	236
251.231	236
251.465	242
251.698	206
251.931	221
252.164	211
252.397	224
252.63	207
252.863	226
253.096	238
253.329	252
253.562	254
253.795	247
254.028	242
254.261	227
254.494	248
254.727	266
254.96	307
255.193	292
255.426	280
255.659	237
255.892	252
256.124	243
256.357	236
256.59	218
256.823	229
257.056	230
257.289	211
257.521	227
257.754	227
257.987	239
258.22	234
258.452	224
258.685	230
258.918	225
259.151	220
259.383	233
259.616	234
259.849	250
260.081	244
260.314	296
260.547	280
260.779	269
261.012	259
261.244	274
261.477	238
261.71	255
261.942	235
262.175	272
262.407	251
262.64	243
262.872	245
263.105	221
263.337	237
263.57	242
263.802	246
264.035	224
264.267	234
264.499	240
264.732	227
264.964	232
265.197	246
265.429	223
265.661	249
265.894	226
266.126	246
266.358	230
266.591	254
266.823	262
267.055	244
267.287	263
267.52	239
267.752	256
267.984	254
268.216	253
268.448	258
268.681	254
268.913	262
269.145	302
269.377	296
269.609	310
269.841	307
270.073	302
270.306	326
270.538	341
270.77	336
271.002	321
271.234	310
271.466	329
271.698	353
271.93	330
272.162	349
272.394	361
272.626	332
272.858	327
273.09	298
273.322	302
273.553	299
273.785	303
274.017	295
274.249	279
274.481	283
274.713	284
274.945	307
275.176	288
275.408	282
275.64	272
275.872	293
276.104	292
276.335	287
276.567	298
276.799	316
277.031	331
277.262	340
277.494	355
277.726	329
277.957	328
278.189	298
278.421	303
278.652	278
278.884	292
279.115	290
279.347	292
279.579	303
279.81	300
280.042	300
280.273	295
280.505	289
280.736	290
280.968	292
281.199	297
281.431	292
281.662	289
281.894	300
282.125	318
282.356	319
282.588	344
282.819	356
283.051	311
283.282	292
283.513	299
283.745	308
283.976	308
284.207	324
284.439	303
284.67	313
284.901	299
285.132	313
285.364	307
285.595	293
285.826	308
286.057	314
286.288	308
286.52	296
286.751	307
286.982	314
287.213	312
287.444	319
287.675	313
287.906	329
288.138	341
288.369	325
288.6	332
288.831	361
289.062	329
289.293	330
289.524	336
289.755	332
289.986	326
290.217	333
290.448	318
290.679	308
290.91	324
291.141	309
291.371	308
291.602	324
291.833	315
292.064	326
292.295	332
292.526	328
292.757	326
292.987	317
293.218	309
293.449	314
293.68	334
293.91	310
294.141	326
294.372	328
294.603	315
294.833	349
295.064	326
295.295	327
295.525	331
295.756	359
295.987	339
296.217	373
296.448	376
296.679	344
296.909	338
297.14	334
297.37	340
297.601	340
297.831	324
298.062	355
298.292	322
298.523	352
298.753	330
298.984	357
299.214	350
299.445	356
299.675	348
299.905	359
300.136	340
300.366	353
300.597	341
300.827	364
301.057	377
301.288	363
301.518	372
301.748	348
301.979	377
302.209	362
302.439	360
302.669	365
302.9	358
303.13	372
303.36	377
303.59	376
303.82	393
304.051	391
304.281	378
304.511	348
304.741	357
304.971	378
305.201	358
305.431	367
305.661	379
305.891	358
306.121	366
306.352	366
306.582	386
306.812	351
307.042	363
307.272	380
307.502	387
307.731	381
307.961	389
308.191	377
308.421	377
308.651	382
308.881	368
309.111	384
309.341	384
309.571	383
309.8	407
310.03	418
310.26	418
310.49	421
310.72	437
310.949	453
311.179	461
311.409	431
311.639	411
311.868	416
312.098	424
312.328	428
312.557	437
312.787	456
313.017	457
313.246	457
313.476	416
313.706	422
313.935	426
314.165	428
314.394	467
314.624	461
314.853	434
315.083	440
315.312	434
315.542	422
315.771	404
316.001	414
316.23	431
316.46	430
316.689	438
316.919	430
317.148	441
317.377	457
317.607	441
317.836	429
318.065	450
318.295	430
318.524	439
318.753	400
318.983	420
319.212	434
319.441	440
319.67	442
319.9	444
320.129	418
320.358	460
320.587	459
320.816	438
321.046	451
321.275	469
321.504	430
321.733	485
321.962	478
322.191	487
322.42	507
322.649	502
322.878	523
323.108	534
323.337	577
323.566	580
323.795	622
324.024	669
324.253	806
324.482	1165
324.71	1849
324.939	2758
325.168	2381
325.397	1166
325.626	760
325.855	646
326.084	609
326.313	622
326.542	596
326.77	650
326.999	736
327.228	1052
327.457	1616
327.686	2054
327.914	1334
328.143	836
328.372	716
328.6	667
328.829	664
329.058	666
329.287	687
329.515	635
329.744	596
329.972	548
330.201	582
330.43	616
330.658	660
330.887	694
331.115	694
331.344	608
331.572	571
331.801	583
332.03	569
332.258	526
332.486	536
332.715	489
332.943	499
333.172	514
333.4	542
333.629	514
333.857	520
334.085	556
334.314	557
334.542	549
334.771	536
334.999	564
335.227	553
335.455	540
335.684	529
335.912	516
336.14	522
336.369	494
336.597	529
336.825	526
337.053	506
337.281	517
337.51	507
337.738	498
337.966	523
338.194	502
338.422	491
338.65	486
338.878	495
339.106	502
339.334	514
339.562	486
339.79	504
340.018	496
340.246	502
340.474	510
340.702	498
340.93	511
341.158	514
341.386	491
341.614	505
341.842	492
342.07	491
342.298	480
342.526	492
342.754	482
342.981	468
343.209	485
343.437	499
343.665	496
343.893	516
344.12	518
344.348	528
344.576	503
344.804	505
345.031	529
345.259	511
345.487	508
345.714	517
345.942	495
346.17	494
346.397	504
346.625	484
346.853	480
347.08	482
347.308	493
347.535	500
347.763	467
347.99	484
348.218	499
348.445	502
348.673	507
348.9	486
349.128	479
349.355	471
349.583	466
349.81	479
350.037	453
350.265	479
350.492	473
350.72	476
350.947	461
351.174	505
351.402	499
351.629	510
351.856	508
352.083	490
352.311	487
352.538	493
352.765	511
352.992	515
353.22	487
353.447	493
353.674	475
353.901	472
354.128	452
354.355	450
354.583	447
354.81	458
355.037	459
355.264	450
355.491	456
355.718	466
355.945	448
356.172	471
356.399	456
356.626	450
356.853	467
357.08	437
357.307	444
357.534	442
357.761	447
357.988	446
358.215	454
358.441	452
358.668	474
358.895	454
359.122	467
359.349	487
359.576	490
359.802	525
360.029	544
360.256	550
360.483	538
360.709	515
360.936	511
361.163	498
361.39	477
361.616	500
361.843	494
362.07	472
362.296	491
362.523	484
362.749	472
362.976	462
363.203	483
363.429	467
363.656	473
363.882	460
364.109	469
364.335	470
364.562	468
364.788	466
365.015	471
365.241	460
365.468	472
365.694	471
365.92	458
366.147	479
366.373	473
366.599	456
366.826	478
367.052	457
367.278	470
367.505	452
367.731	480
367.957	460
368.184	486
368.41	470
368.636	472
368.862	504
369.089	474
369.315	467
369.541	466
369.767	479
369.993	498
370.219	460
370.445	469
370.672	461
370.898	476
371.124	455
371.35	469
371.576	458
371.802	455
372.028	474
372.254	471
372.48	482
372.706	484
372.932	485
373.158	472
373.384	456
373.61	484
373.835	462
374.061	472
374.287	484
374.513	479
374.739	494
374.965	481
375.191	457
375.416	470
375.642	457
375.868	480
376.094	479
376.319	472
376.545	490
376.771	463
376.997	477
377.222	493
377.448	460
377.674	470
377.899	481
378.125	463
378.35	475
378.576	452
378.802	462
379.027	442
379.253	458
379.478	469
379.704	471
379.929	468
380.155	440
380.38	472
380.606	496
380.831	442
381.057	488
381.282	486
381.507	498
381.733	470
381.958	468
382.184	477
382.409	502
382.634	498
382.86	484
383.085	491
383.31	477
383.535	491
383.761	485
383.986	495
384.211	498
384.436	506
384.662	500
384.887	492
385.112	518
385.337	485
385.562	522
385.787	511
386.013	518
386.238	511
386.463	538
386.688	508
386.913	505
387.138	515
387.363	512
387.588	534
387.813	526
388.038	496
388.263	533
388.488	514
388.713	527
388.938	519
389.163	533
389.387	527
389.612	512
389.837	524
390.062	527
390.287	528
390.512	519
390.736	508
390.961	533
391.186	521
391.411	516
391.636	526
391.86	539
392.085	545
392.31	551
392.534	521
392.759	538
392.984	545
393.208	535
393.433	536
393.658	526
393.882	511
394.107	520
394.331	527
394.556	528
394.78	547
395.005	526
395.229	535
395.454	549
395.678	550
395.903	565
396.127	606
396.352	588
396.576	564
396.801	555
397.025	555
397.249	565
397.474	574
397.698	566
397.922	603
398.147	603
398.371	597
398.595	587
398.82	600
399.044	614
399.268	616
399.492	651
399.717	700
399.941	727
400.165	772
400.389	782
400.613	697
400.837	661
401.062	670
401.286	625
401.51	603
401.734	603
401.958	614
402.182	606
402.406	607
402.63	630
402.854	614
403.078	621
403.302	629
403.526	618
403.75	634
403.974	640
404.198	598
404.422	631
404.645	635
404.869	650
405.093	651
405.317	692
405.541	718
405.765	679
405.988	666
406.212	675
406.436	674
406.66	705
406.883	672
407.107	700
407.331	755
407.555	859
407.778	869
408.002	758
408.226	706
408.449	684
408.673	678
408.896	723
409.12	788
409.344	711
409.567	672
409.791	662
410.014	642
410.238	642
410.461	637
410.685	640
410.908	645
411.132	704
411.355	744
411.578	700
411.802	654
412.025	650
412.249	612
412.472	611
412.695	642
412.919	657
413.142	623
413.365	620
413.589	648
413.812	613
414.035	591
414.258	605
414.482	604
414.705	610
414.928	611
415.151	587
415.374	603
415.597	594
415.821	601
416.044	625
416.267	603
416.49	594
416.713	598
416.936	594
417.159	599
417.382	600
417.605	593
417.828	632
418.051	616
418.274	615
418.497	607
418.72	603
418.943	580
419.166	628
419.389	642
419.611	652
419.834	602
420.057	639
420.28	623
420.503	624
420.726	629
420.948	632
421.171	697
421.394	751
421.617	680
421.839	611
422.062	626
422.285	636
422.507	719
422.73	826
422.953	780
423.175	709
423.398	650
423.621	646
423.843	679
424.066	678
424.288	646
424.511	672
424.733	777
424.956	850
425.178	841
425.401	834
425.623	854
425.846	744
426.068	681
426.291	686
426.513	668
426.735	707
426.958	710
427.18	851
427.402	996
427.625	1087
427.847	960
428.069	810
428.292	707
428.514	654
428.736	648
428.958	643
429.181	638
429.403	623
429.625	615
429.847	676
430.069	785
430.292	760
430.514	674
430.736	621
430.958	600
431.18	591
431.402	590
431.624	589
431.846	592
432.068	610
432.29	590
432.512	560
432.734	602
432.956	596
433.178	604
433.4	624
433.622	607
433.844	591
434.066	571
434.287	581
434.509	600
434.731	596
434.953	623
435.175	646
435.397	665
435.618	683
435.84	734
436.062	850
436.284	912
436.505	774
436.727	698
436.949	662
437.17	633
437.392	623
437.614	638
437.835	673
438.057	796
438.278	940
438.5	928
438.721	1027
438.943	983
439.165	780
439.386	702
439.608	694
439.829	679
440.05	708
440.272	777
440.493	738
440.715	662
440.936	646
441.158	660
441.379	617
441.6	650
441.822	664
442.043	734
442.264	840
442.486	886
442.707	728
442.928	694
443.149	698
443.371	709
443.592	767
443.813	902
444.034	981
444.255	792
444.476	715
444.698	717
444.919	708
445.14	797
445.361	747
445.582	746
445.803	802
446.024	950
446.245	962
446.466	846
446.687	736
446.908	688
447.129	645
447.35	642
447.571	645
447.792	622
448.013	624
448.234	659
448.455	721
448.675	854
448.896	1001
449.117	838
449.338	811
449.559	918
449.779	1044
450	833
450.221	698
450.442	638
450.662	640
450.883	642
451.104	669
451.324	632
451.545	586
451.766	599
451.986	552
452.207	560
452.428	573
452.648	548
452.869	557
453.089	570
453.31	579
453.53	578
453.751	568
453.971	553
454.192	591
454.412	584
454.633	562
454.853	557
455.073	563
455.294	609
455.514	656
455.734	636
455.955	555
456.175	535
456.395	538
456.616	540
456.836	503
457.056	521
457.276	510
457.497	534
457.717	518
457.937	530
458.157	542
458.377	556
458.598	593
458.818	638
459.038	722
459.258	757
459.478	650
459.698	619
459.918	611
460.138	590
460.358	606
460.578	598
460.798	614
461.018	602
461.238	631
461.458	626
461.678	600
461.898	600
462.118	620
462.338	627
462.558	618
462.777	638
462.997	622
463.217	668
463.437	683
463.657	667
463.876	671
464.096	660
464.316	648
464.536	664
464.755	678
464.975	659
465.195	684
465.414	783
465.634	711
465.854	652
466.073	634
466.293	626
466.512	604
466.732	578
466.951	578
467.171	569
467.391	595
467.61	621
467.829	613
468.049	568
468.268	564
468.488	550
468.707	574
468.927	564
469.146	544
469.365	555
469.585	564
469.804	582
470.023	596
470.243	591
470.462	592
470.681	616
470.901	588
471.12	579
471.339	575
471.558	584
471.777	577
471.997	574
472.216	559
472.435	568
472.654	591
472.873	571
473.092	578
473.311	581
473.53	581
473.749	586
473.968	646
474.187	750
474.406	805
474.625	656
474.844	597
475.063	588
475.282	566
475.501	573
475.72	567
475.939	616
476.158	602
476.377	598
476.596	601
476.814	600
477.033	621
477.252	629
477.471	612
477.69	613
477.908	647
478.127	638
478.346	664
478.564	653
478.783	638
479.002	684
479.22	671
479.439	695
479.658	709
479.876	700
480.095	707
480.313	749
480.532	726
480.751	719
480.969	702
481.188	723
481.406	727
481.624	737
481.843	695
482.061	684
482.28	678
482.498	699
482.717	671
482.935	665
483.153	699
483.372	691
483.59	681
483.808	702
484.027	674
484.245	710
484.463	656
484.681	710
484.9	682
485.118	700
485.336	686
485.554	693
485.772	693
485.99	718
486.209	720
486.427	720
486.645	723
486.863	743
487.081	741
487.299	719
487.517	745
487.735	754
487.953	746
488.171	743
488.389	726
488.607	742
488.825	745
489.043	762
489.261	774
489.479	740
489.696	722
489.914	758
490.132	762
490.35	789
490.568	783
490.786	781
491.003	795
491.221	821
491.439	813
491.657	827
491.874	837
492.092	848
492.31	830
492.527	848
492.745	816
492.963	854
493.18	821
493.398	853
493.615	876
493.833	867
494.05	874
494.268	881
494.485	868
494.703	872
494.92	872
495.138	862
495.355	894
495.573	899
495.79	902
496.008	869
496.225	867
496.442	895
496.66	888
496.877	883
497.094	910
497.312	879
497.529	903
497.746	923
497.963	898
498.181	959
498.398	991
498.615	1006
498.832	1023
499.049	1030
499.267	1060
499.484	1087
499.701	1108
499.918	1161
500.135	1220
500.352	1279
500.569	1289
500.786	1271
501.003	1225
501.22	1211
501.437	1164
501.654	1141
501.871	1154
502.088	1072
502.305	1047
502.522	981
502.739	954
502.956	969
503.172	971
503.389	935
503.606	918
503.823	913
504.04	887
504.256	900
504.473	900
504.69	918
504.907	898
505.123	908
505.34	867
505.557	870
505.773	873
505.99	839
506.207	848
506.423	846
506.64	854
506.856	822
507.073	831
507.289	840
507.506	829
507.722	839
507.939	863
508.155	823
508.372	830
508.588	784
508.805	807
509.021	822
509.238	821
509.454	836
509.67	797
509.887	826
510.103	807
510.319	810
510.536	924
510.752	1480
510.968	1208
511.184	846
511.401	781
511.617	756
511.833	773
512.049	746
512.265	746
512.481	749
512.698	742
512.914	741
513.13	763
513.346	752
513.562	750
513.778	741
513.994	784
514.21	800
514.426	811
514.642	843
514.858	888
515.074	900
515.29	1074
515.506	1544
515.721	1334
515.937	922
516.153	858
516.369	826
516.585	832
516.801	802
517.016	794
517.232	815
517.448	793
517.664	782
517.879	792
518.095	787
518.311	797
518.527	774
518.742	780
518.958	759
519.173	756
519.389	759
519.605	739
519.82	756
520.036	797
520.251	795
520.467	814
520.682	807
520.898	832
521.113	842
521.329	899
521.544	1024
521.76	1263
521.975	2000
522.19	2000
522.406	1118
522.621	891
522.836	796
523.052	776
523.267	729
523.482	702
523.698	708
523.913	707
524.128	719
524.343	714
524.559	693
524.774	686
524.989	650
525.204	674
525.419	668
525.634	658
525.849	638
526.064	639
526.28	634
526.495	639
526.71	656
526.925	627
527.14	630
527.355	616
527.57	635
527.785	622
527.999	631
528.214	636
528.429	649
528.644	642
528.859	636
529.074	641
529.289	668
529.503	734
529.718	750
529.933	661
530.148	642
530.363	640
530.577	592
530.792	623
531.007	607
531.221	588
531.436	607
531.651	602
531.865	587
532.08	591
532.295	607
532.509	592
532.724	581
532.938	602
533.153	582
533.367	581
533.582	596
533.796	593
534.011	619
534.225	595
534.44	583
534.654	582
534.868	584
535.083	587
535.297	603
535.511	586
535.726	584
535.94	599
536.154	589
536.369	591
536.583	566
536.797	572
537.011	561
537.225	542
537.44	562
537.654	580
537.868	590
538.082	578
538.296	585
538.51	581
538.724	572
538.938	559
539.153	563
539.367	592
539.581	576
539.795	572
540.009	566
540.222	567
540.436	562
540.65	559
540.864	559
541.078	566
541.292	576
541.506	579
541.72	573
541.934	568
542.147	562
542.361	562
542.575	550
542.789	551
543.002	538
543.216	555
543.43	560
543.644	563
543.857	568
544.071	560
544.285	552
544.498	547
544.712	567
544.925	559
545.139	568
545.352	551
545.566	532
545.779	544
545.993	544
546.206	536
546.42	544
546.633	533
546.847	524
547.06	526
547.274	540
547.487	536
547.7	537
547.914	541
548.127	541
548.34	546
548.554	545
548.767	552
548.98	560
549.193	525
549.407	522
549.62	544
549.833	556
550.046	538
550.259	542
550.473	542
550.686	547
550.899	527
551.112	502
551.325	540
551.538	534
551.751	538
551.964	556
552.177	546
552.39	519
552.603	527
552.816	523
553.029	548
553.242	539
553.455	554
553.667	550
553.88	583
554.093	564
554.306	569
554.519	556
554.732	529
554.944	516
555.157	525
555.37	518
555.583	532
555.795	511
556.008	524
556.221	489
556.433	490
556.646	493
556.859	494
557.071	476
557.284	492
557.496	502
557.709	477
557.921	477
558.134	504
558.346	469
558.559	482
558.771	497
558.984	473
559.196	471
559.409	466
559.621	469
559.833	467
560.046	466
560.258	464
560.47	456
560.683	472
560.895	473
561.107	462
561.32	466
561.532	484
561.744	488
561.956	465
562.168	458
562.381	488
562.593	468
562.805	471
563.017	479
563.229	492
563.441	495
563.653	489
563.865	486
564.077	470
564.289	490
564.501	483
564.713	509
564.925	498
565.137	504
565.349	526
565.561	518
565.773	518
565.985	546
566.197	558
566.408	549
566.62	556
566.832	581
567.044	588
567.255	597
567.467	588
567.679	607
567.891	627
568.102	587
568.314	619
568.526	547
568.737	564
568.949	552
569.161	550
569.372	505
569.584	502
569.795	488
570.007	487
570.218	540
570.43	536
570.641	484
570.853	461
571.064	458
571.276	485
571.487	460
571.698	445
571.91	461
572.121	462
572.333	446
572.544	425
572.755	450
572.966	441
573.178	412
573.389	401
573.6	415
573.811	406
574.023	412
574.234	415
574.445	419
574.656	427
574.867	407
575.078	417
575.289	399
575.501	435
575.712	406
575.923	392
576.134	412
576.345	412
576.556	392
576.767	410
576.978	397
577.188	397
577.399	410
577.61	382
577.821	424
578.032	409
578.243	435
578.454	676
578.665	537
578.875	396
579.086	401
579.297	396
579.508	375
579.718	380
579.929	395
580.14	381
580.35	383
580.561	384
580.772	379
580.982	377
581.193	376
581.403	376
581.614	389
581.825	386
582.035	372
582.246	379
582.456	370
582.667	374
582.877	343
583.087	368
583.298	386
583.508	378
583.719	379
583.929	363
584.139	352
584.35	347
584.56	358
584.77	372
584.981	380
585.191	365
585.401	363
585.611	350
585.821	373
586.032	378
586.242	350
586.452	347
586.662	365
586.872	344
587.082	344
587.292	367
587.502	350
587.713	368
587.923	363
588.133	370
588.343	356
588.553	366
588.762	364
588.972	358
589.182	340
589.392	348
589.602	359
589.812	347
590.022	343
590.232	357
590.441	343
590.651	351
590.861	357
591.071	354
591.281	377
591.49	375
591.7	373
591.91	378
592.119	345
592.329	359
592.539	356
592.748	367
592.958	375
593.167	379
593.377	389
593.587	383
593.796	380
594.006	373
594.215	372
594.424	381
594.634	359
594.843	370
595.053	357
595.262	334
595.472	349
595.681	350
595.89	365
596.1	336
596.309	346
596.518	329
596.727	341
596.937	328
597.146	335
597.355	335
597.564	336
597.774	340
597.983	323
598.192	326
598.401	327
598.61	304
598.819	292
599.028	327
599.237	303
599.446	322
599.655	328
599.864	312
600.073	312
600.282	310
600.491	333
600.7	326
600.909	325
601.118	315
601.327	294
601.536	311
601.745	298
601.953	298
602.162	285
602.371	298
602.58	306
602.789	320
602.997	301
603.206	288
603.415	304
603.623	301
603.832	288
604.041	285
604.249	281
604.458	301
604.666	294
604.875	303
605.084	288
605.292	290
605.501	294
605.709	298
605.918	295
606.126	267
606.334	288
606.543	280
606.751	288
606.96	282
607.168	264
607.376	295
607.585	299
607.793	282
608.001	282
608.21	283
608.418	267
608.626	299
608.834	292
609.043	298
609.251	315
609.459	287
609.667	297
609.875	280
610.083	276
610.291	290
610.499	294
610.707	278
610.916	277
611.124	282
611.332	299
611.54	293
611.748	306
611.955	279
612.163	258
612.371	284
612.579	271
612.787	282
612.995	299
613.203	266
613.411	286
613.618	275
613.826	278
614.034	282
614.242	267
614.449	286
614.657	289
614.865	287
615.072	282
615.28	284
615.488	269
615.695	258
615.903	278
616.111	281
616.318	275
616.526	272
616.733	277
616.941	262
617.148	272
617.356	269
617.563	278
617.771	252
617.978	254
618.185	275
618.393	248
618.6	266
618.807	262
619.015	278
619.222	276
619.429	247
619.637	267
619.844	266
620.051	257
620.258	270
620.466	250
620.673	255
620.88	255
621.087	248
621.294	244
621.501	247
621.708	262
621.915	247
622.122	271
622.329	250
622.536	264
622.743	242
622.95	244
623.157	238
623.364	264
623.571	235
623.778	235
623.985	255
624.192	246
624.399	237
624.606	247
624.812	224
625.019	246
625.226	258
625.433	238
625.639	244
625.846	237
626.053	268
626.259	244
626.466	236
626.673	246
626.879	239
627.086	235
627.293	238
627.499	234
627.706	236
627.912	246
628.119	237
628.325	226
628.532	243
628.738	226
628.945	236
629.151	221
629.357	228
629.564	212
629.77	244
629.976	214
630.183	230
630.389	238
630.595	220
630.802	227
631.008	202
631.214	210
631.42	210
631.627	236
631.833	215
632.039	226
632.245	213
632.451	202
632.657	222
632.863	210
633.069	221
633.275	217
633.481	218
633.688	230
633.893	205
634.099	216
634.305	193
634.511	217
634.717	215
634.923	215
635.129	215
635.335	202
635.541	226
635.747	203
635.952	184
636.158	208
636.364	196
636.57	219
636.775	208
636.981	213
637.187	213
637.392	206
637.598	200
637.804	204
638.009	203
638.215	203
638.421	201
638.626	192
638.832	207
639.037	203
639.243	193
639.448	197
639.654	206
639.859	189
640.065	197
640.27	202
640.475	195
640.681	200
640.886	203
641.091	203
641.297	203
641.502	197
641.707	184
641.913	192
642.118	190
642.323	187
642.528	203
642.733	182
642.939	186
643.144	194
643.349	190
643.554	199
643.759	189
643.964	189
644.169	186
644.374	186
644.579	184
644.784	172
644.989	197
645.194	201
645.399	183
645.604	196
645.809	179
646.014	173
646.219	184
646.423	184
646.628	176
646.833	184
647.038	190
647.243	189
647.447	196
647.652	200
647.857	199
648.062	188
648.266	202
648.471	184
648.676	183
648.88	192
649.085	178
649.289	179
649.494	192
649.698	219
649.903	199
650.107	187
650.312	186
650.516	185
650.721	179
650.925	166
651.13	181
651.334	192
651.539	160
651.743	173
651.947	164
652.152	167
652.356	151
652.56	162
652.764	150
652.969	169
653.173	167
653.377	148
653.581	150
653.785	146
653.99	171
654.194	162
654.398	162
654.602	152
654.806	152
655.01	156
655.214	168
655.418	153
655.622	154
655.826	156
656.03	148
656.234	153
656.438	178
656.642	136
656.846	158
657.049	137
657.253	139
657.457	133
657.661	131
657.865	124
658.068	112
658.272	111
658.476	114
658.68	122
658.883	118
659.087	118
659.291	109
659.494	102
659.698	107
659.901	102
660.105	107
660.309	97
660.512	91
660.716	106
660.919	91
661.123	97
661.326	98
661.53	99
661.733	90
661.936	100
662.14	93
662.343	92
662.546	91
662.75	95
662.953	87
663.156	97
663.36	91
663.563	71
663.766	80
663.969	74
664.173	86
664.376	90
664.579	86
664.782	91
664.985	99
665.188	93
665.391	88
665.594	86
665.797	85
666	91
666.203	78
666.406	75
666.609	89
666.812	86
667.015	92
667.218	90
667.421	86
667.624	78
667.827	75
668.03	100
668.232	85
668.435	79
668.638	90
668.841	83
669.043	89
669.246	86
669.449	93
669.651	84
669.854	86
670.057	95
670.259	78
670.462	91
670.665	85
670.867	84
671.07	84
671.272	94
671.475	89
671.677	74
671.88	87
672.082	80
672.284	80
672.487	74
672.689	81
672.892	79
