Data from 1989.PennyLincolnUp.Lamp.En5.5.200Scan.071819.P2_HRD10591_17-24-59-973.txt Node
Date: Thu Jul 18 17:24:59 EDT 2019
User: cochatt
Spectrometer: HR+D1059
Trigger mode: 1
Integration Time (sec): 1.000000E-1
Scans to average: 1
Electric dark correction enabled: true
Nonlinearity correction enabled: false
Boxcar width: 0
XAxis mode: Wavelengths
Number of Pixels in Spectrum: 2048
>>>>>Begin Spectral Data<<<<<
223.165	-14
223.4	-14
223.635	-14
223.869	-11
224.104	-7
224.338	-13
224.573	-13
224.808	-13
225.042	4
225.277	-5
225.511	-24
225.746	9
225.98	3
226.215	8
226.449	12
226.683	29
226.918	12
227.152	23
227.387	36
227.621	44
227.856	40
228.09	37
228.324	44
228.559	51
228.793	58
229.027	96
229.262	123
229.496	121
229.73	145
229.964	167
230.199	126
230.433	130
230.667	133
230.901	116
231.136	108
231.37	118
231.604	116
231.838	111
232.072	101
232.306	118
232.541	104
232.775	110
233.009	111
233.243	130
233.477	107
233.711	121
233.945	123
234.179	103
234.413	123
234.647	129
234.881	116
235.115	135
235.349	133
235.583	119
235.817	136
236.051	133
236.285	138
236.519	123
236.753	140
236.987	150
237.221	196
237.455	243
237.689	207
237.922	154
238.156	147
238.39	125
238.624	140
238.858	116
239.091	141
239.325	126
239.559	125
239.793	140
240.027	144
240.26	151
240.494	160
240.728	166
240.961	157
241.195	159
241.429	157
241.662	132
241.896	141
242.13	122
242.363	134
242.597	130
242.83	154
243.064	135
243.298	149
243.531	139
243.765	163
243.998	140
244.232	137
244.465	159
244.699	149
244.932	152
245.166	152
245.399	157
245.633	154
245.866	161
246.099	153
246.333	149
246.566	152
246.8	153
247.033	154
247.266	167
247.5	170
247.733	173
247.966	181
248.2	181
248.433	183
248.666	173
248.899	210
249.133	215
249.366	239
249.599	220
249.832	200
250.066	196
250.299	203
250.532	207
250.765	213
250.998	217
251.231	256
251.465	241
251.698	207
251.931	227
252.164	220
252.397	219
252.63	209
252.863	231
253.096	230
253.329	245
253.562	262
253.795	245
254.028	241
254.261	235
254.494	260
254.727	299
254.96	301
255.193	312
255.426	283
255.659	267
255.892	269
256.124	261
256.357	229
256.59	246
256.823	223
257.056	235
257.289	237
257.521	215
257.754	215
257.987	252
258.22	249
258.452	224
258.685	238
258.918	215
259.151	224
259.383	248
259.616	247
259.849	256
260.081	267
260.314	261
260.547	274
260.779	271
261.012	268
261.244	246
261.477	254
261.71	247
261.942	244
262.175	269
262.407	239
262.64	241
262.872	231
263.105	223
263.337	232
263.57	220
263.802	243
264.035	252
264.267	231
264.499	217
264.732	220
264.964	233
265.197	228
265.429	241
265.661	237
265.894	226
266.126	244
266.358	241
266.591	236
266.823	249
267.055	245
267.287	228
267.52	234
267.752	246
267.984	243
268.216	251
268.448	245
268.681	266
268.913	261
269.145	276
269.377	298
269.609	297
269.841	303
270.073	307
270.306	307
270.538	347
270.77	346
271.002	346
271.234	327
271.466	331
271.698	335
271.93	356
272.162	354
272.394	361
272.626	343
272.858	337
273.09	308
273.322	305
273.553	280
273.785	281
274.017	291
274.249	284
274.481	275
274.713	280
274.945	273
275.176	276
275.408	293
275.64	284
275.872	293
276.104	295
276.335	287
276.567	283
276.799	317
277.031	356
277.262	349
277.494	355
277.726	325
277.957	337
278.189	319
278.421	310
278.652	293
278.884	297
279.115	282
279.347	274
279.579	297
279.81	313
280.042	280
280.273	289
280.505	293
280.736	290
280.968	292
281.199	285
281.431	285
281.662	299
281.894	281
282.125	277
282.356	314
282.588	347
282.819	319
283.051	300
283.282	301
283.513	303
283.745	291
283.976	305
284.207	302
284.439	297
284.67	316
284.901	308
285.132	308
285.364	287
285.595	302
285.826	285
286.057	286
286.288	286
286.52	287
286.751	293
286.982	290
287.213	300
287.444	294
287.675	298
287.906	314
288.138	311
288.369	320
288.6	319
288.831	306
289.062	316
289.293	309
289.524	310
289.755	318
289.986	297
290.217	321
290.448	291
290.679	291
290.91	319
291.141	297
291.371	303
291.602	305
291.833	326
292.064	301
292.295	299
292.526	305
292.757	308
292.987	307
293.218	317
293.449	313
293.68	313
293.91	310
294.141	299
294.372	295
294.603	316
294.833	297
295.064	309
295.295	316
295.525	314
295.756	303
295.987	323
296.217	330
296.448	383
296.679	335
296.909	307
297.14	323
297.37	321
297.601	317
297.831	324
298.062	321
298.292	330
298.523	326
298.753	348
298.984	325
299.214	319
299.445	328
299.675	339
299.905	335
300.136	326
300.366	339
300.597	325
300.827	357
301.057	351
301.288	342
301.518	338
301.748	319
301.979	330
302.209	346
302.439	353
302.669	346
302.9	358
303.13	345
303.36	357
303.59	341
303.82	355
304.051	343
304.281	356
304.511	363
304.741	348
304.971	331
305.201	331
305.431	350
305.661	346
305.891	326
306.121	351
306.352	358
306.582	368
306.812	352
307.042	341
307.272	361
307.502	338
307.731	358
307.961	346
308.191	346
308.421	349
308.651	359
308.881	367
309.111	366
309.341	360
309.571	374
309.8	389
310.03	398
310.26	415
310.49	399
310.72	405
310.949	422
311.179	432
311.409	403
311.639	405
311.868	405
312.098	401
312.328	407
312.557	440
312.787	436
313.017	445
313.246	415
313.476	413
313.706	417
313.935	396
314.165	416
314.394	433
314.624	435
314.853	417
315.083	409
315.312	399
315.542	401
315.771	391
316.001	413
316.23	401
316.46	416
316.689	397
316.919	407
317.148	414
317.377	425
317.607	434
317.836	399
318.065	397
318.295	427
318.524	391
318.753	393
318.983	408
319.212	425
319.441	419
319.67	400
319.9	413
320.129	413
320.358	410
320.587	409
320.816	418
321.046	428
321.275	431
321.504	430
321.733	441
321.962	456
322.191	439
322.42	468
322.649	488
322.878	506
323.108	493
323.337	551
323.566	556
323.795	574
324.024	676
324.253	795
324.482	1140
324.71	1738
324.939	2489
325.168	2185
325.397	1130
325.626	755
325.855	621
326.084	586
326.313	552
326.542	548
326.77	627
326.999	727
327.228	1013
327.457	1516
327.686	1873
327.914	1282
328.143	801
328.372	704
328.6	663
328.829	622
329.058	641
329.287	663
329.515	569
329.744	573
329.972	555
330.201	581
330.43	610
330.658	631
330.887	665
331.115	620
331.344	559
331.572	537
331.801	540
332.03	521
332.258	492
332.486	490
332.715	466
332.943	454
333.172	455
333.4	468
333.629	479
333.857	482
334.085	487
334.314	504
334.542	497
334.771	512
334.999	509
335.227	475
335.455	480
335.684	467
335.912	469
336.14	466
336.369	446
336.597	485
336.825	489
337.053	469
337.281	463
337.51	450
337.738	469
337.966	479
338.194	476
338.422	459
338.65	452
338.878	446
339.106	445
339.334	439
339.562	453
339.79	453
340.018	446
340.246	457
340.474	447
340.702	445
340.93	449
341.158	413
341.386	446
341.614	449
341.842	468
342.07	429
342.298	414
342.526	429
342.754	415
342.981	422
343.209	411
343.437	441
343.665	442
343.893	436
344.12	465
344.348	439
344.576	440
344.804	458
345.031	470
345.259	470
345.487	470
345.714	447
345.942	446
346.17	419
346.397	442
346.625	449
346.853	444
347.08	439
347.308	442
347.535	447
347.763	458
347.99	448
348.218	453
348.445	450
348.673	469
348.9	433
349.128	426
349.355	416
349.583	414
349.81	417
350.037	403
350.265	419
350.492	410
350.72	420
350.947	417
351.174	412
351.402	436
351.629	425
351.856	440
352.083	426
352.311	445
352.538	461
352.765	446
352.992	437
353.22	438
353.447	420
353.674	425
353.901	422
354.128	406
354.355	417
354.583	373
354.81	402
355.037	416
355.264	400
355.491	394
355.718	389
355.945	377
356.172	395
356.399	390
356.626	398
356.853	403
357.08	398
357.307	378
357.534	389
357.761	401
357.988	385
358.215	375
358.441	402
358.668	392
358.895	407
359.122	401
359.349	404
359.576	458
359.802	457
360.029	468
360.256	481
360.483	487
360.709	438
360.936	435
361.163	442
361.39	412
361.616	427
361.843	427
362.07	410
362.296	425
362.523	427
362.749	417
362.976	420
363.203	419
363.429	407
363.656	412
363.882	407
364.109	421
364.335	409
364.562	392
364.788	405
365.015	405
365.241	428
365.468	394
365.694	421
365.92	403
366.147	400
366.373	389
366.599	398
366.826	387
367.052	366
367.278	395
367.505	399
367.731	382
367.957	408
368.184	409
368.41	403
368.636	414
368.862	409
369.089	401
369.315	392
369.541	407
369.767	378
369.993	408
370.219	393
370.445	384
370.672	392
370.898	396
371.124	391
371.35	410
371.576	401
371.802	411
372.028	408
372.254	407
372.48	371
372.706	370
372.932	397
373.158	391
373.384	403
373.61	395
373.835	394
374.061	382
374.287	392
374.513	406
374.739	398
374.965	386
375.191	391
375.416	411
375.642	386
375.868	381
376.094	381
376.319	385
376.545	386
376.771	383
376.997	387
377.222	373
377.448	360
377.674	381
377.899	403
378.125	384
378.35	383
378.576	378
378.802	383
379.027	393
379.253	384
379.478	393
379.704	402
379.929	380
380.155	385
380.38	385
380.606	385
380.831	392
381.057	375
381.282	406
381.507	392
381.733	387
381.958	377
382.184	379
382.409	394
382.634	399
382.86	373
383.085	423
383.31	392
383.535	389
383.761	399
383.986	407
384.211	387
384.436	398
384.662	400
384.887	420
385.112	412
385.337	417
385.562	385
385.787	413
386.013	421
386.238	391
386.463	403
386.688	412
386.913	420
387.138	403
387.363	405
387.588	399
387.813	417
388.038	396
388.263	395
388.488	410
388.713	415
388.938	421
389.163	407
389.387	415
389.612	408
389.837	396
390.062	393
390.287	403
390.512	402
390.736	407
390.961	388
391.186	403
391.411	403
391.636	404
391.86	407
392.085	426
392.31	427
392.534	435
392.759	404
392.984	409
393.208	425
393.433	406
393.658	408
393.882	393
394.107	390
394.331	397
394.556	426
394.78	408
395.005	414
395.229	411
395.454	419
395.678	421
395.903	427
396.127	438
396.352	457
396.576	447
396.801	435
397.025	418
397.249	401
397.474	410
397.698	422
397.922	441
398.147	463
398.371	454
398.595	463
398.82	440
399.044	452
399.268	461
399.492	471
399.717	517
399.941	553
400.165	547
400.389	586
400.613	545
400.837	474
401.062	463
401.286	448
401.51	468
401.734	453
401.958	449
402.182	478
402.406	474
402.63	477
402.854	476
403.078	473
403.302	454
403.526	477
403.75	462
403.974	467
404.198	471
404.422	482
404.645	455
404.869	485
405.093	523
405.317	565
405.541	591
405.765	519
405.988	489
406.212	502
406.436	547
406.66	566
406.883	526
407.107	547
407.331	586
407.555	640
407.778	639
408.002	579
408.226	555
408.449	540
408.673	551
408.896	578
409.12	614
409.344	567
409.567	517
409.791	488
410.014	466
410.238	495
410.461	479
410.685	474
410.908	486
411.132	543
411.355	559
411.578	532
411.802	492
412.025	471
412.249	473
412.472	502
412.695	525
412.919	506
413.142	485
413.365	463
413.589	466
413.812	442
414.035	446
414.258	439
414.482	453
414.705	441
414.928	461
415.151	457
415.374	443
415.597	442
415.821	434
416.044	444
416.267	423
416.49	451
416.713	438
416.936	430
417.159	452
417.382	444
417.605	449
417.828	463
418.051	472
418.274	471
418.497	447
418.72	455
418.943	457
419.166	467
419.389	487
419.611	501
419.834	458
420.057	457
420.28	485
420.503	468
420.726	472
420.948	492
421.171	536
421.394	569
421.617	503
421.839	485
422.062	494
422.285	502
422.507	521
422.73	603
422.953	593
423.175	520
423.398	521
423.621	491
423.843	539
424.066	517
424.288	500
424.511	531
424.733	594
424.956	663
425.178	665
425.401	648
425.623	667
425.846	575
426.068	530
426.291	517
426.513	525
426.735	527
426.958	577
427.18	665
427.402	774
427.625	837
427.847	775
428.069	636
428.292	584
428.514	531
428.736	502
428.958	500
429.181	484
429.403	481
429.625	487
429.847	507
430.069	571
430.292	610
430.514	507
430.736	476
430.958	480
431.18	448
431.402	447
431.624	439
431.846	441
432.068	436
432.29	462
432.512	450
432.734	456
432.956	463
433.178	475
433.4	489
433.622	451
433.844	446
434.066	448
434.287	476
434.509	457
434.731	461
434.953	475
435.175	479
435.397	502
435.618	539
435.84	551
436.062	670
436.284	723
436.505	617
436.727	543
436.949	488
437.17	499
437.392	489
437.614	501
437.835	539
438.057	621
438.278	732
438.5	719
438.721	788
438.943	761
439.165	594
439.386	567
439.608	546
439.829	541
440.05	565
440.272	609
440.493	577
440.715	536
440.936	513
441.158	502
441.379	488
441.6	517
441.822	509
442.043	567
442.264	642
442.486	706
442.707	597
442.928	545
443.149	536
443.371	582
443.592	621
443.813	694
444.034	734
444.255	599
444.476	551
444.698	507
444.919	523
445.14	629
445.361	577
445.582	555
445.803	616
446.024	715
446.245	742
446.466	675
446.687	571
446.908	534
447.129	525
447.35	503
447.571	471
447.792	465
448.013	502
448.234	527
448.455	567
448.675	669
448.896	773
449.117	670
449.338	616
449.559	712
449.779	817
450	658
450.221	549
450.442	523
450.662	472
450.883	491
451.104	503
451.324	482
451.545	472
451.766	463
451.986	449
452.207	460
452.428	435
452.648	421
452.869	427
453.089	439
453.31	453
453.53	439
453.751	427
453.971	433
454.192	455
454.412	454
454.633	426
454.853	438
455.073	441
455.294	457
455.514	516
455.734	520
455.955	414
456.175	428
456.395	412
456.616	396
456.836	398
457.056	405
457.276	393
457.497	396
457.717	413
457.937	413
458.157	410
458.377	414
458.598	469
458.818	528
459.038	589
459.258	609
459.478	497
459.698	458
459.918	441
460.138	445
460.358	457
460.578	442
460.798	421
461.018	446
461.238	448
461.458	474
461.678	422
461.898	414
462.118	446
462.338	449
462.558	454
462.777	455
462.997	479
463.217	461
463.437	471
463.657	486
463.876	463
464.096	460
464.316	478
464.536	476
464.755	463
464.975	467
465.195	518
465.414	620
465.634	541
465.854	492
466.073	467
466.293	453
466.512	429
466.732	441
466.951	419
467.171	428
467.391	435
467.61	455
467.829	468
468.049	451
468.268	439
468.488	415
468.707	392
468.927	440
469.146	415
469.365	435
469.585	416
469.804	422
470.023	446
470.243	430
470.462	420
470.681	461
470.901	463
471.12	433
471.339	435
471.558	438
471.777	442
471.997	414
472.216	423
472.435	473
472.654	448
472.873	433
473.092	430
473.311	421
473.53	466
473.749	449
473.968	524
474.187	613
474.406	635
474.625	513
474.844	474
475.063	458
475.282	419
475.501	434
475.72	444
475.939	443
476.158	439
476.377	453
476.596	452
476.814	444
477.033	451
477.252	450
477.471	485
477.69	482
477.908	471
478.127	457
478.346	468
478.564	485
478.783	517
479.002	504
479.22	483
479.439	511
479.658	526
479.876	518
480.095	533
480.313	543
480.532	565
480.751	519
480.969	522
481.188	588
481.406	603
481.624	557
481.843	541
482.061	524
482.28	477
482.498	509
482.717	509
482.935	516
483.153	514
483.372	513
483.59	520
483.808	518
484.027	511
484.245	527
484.463	512
484.681	519
484.9	518
485.118	531
485.336	524
485.554	542
485.772	530
485.99	543
486.209	515
486.427	541
486.645	553
486.863	577
487.081	555
487.299	555
487.517	535
487.735	533
487.953	537
488.171	538
488.389	552
488.607	561
488.825	558
489.043	531
489.261	596
489.479	553
489.696	573
489.914	556
490.132	554
490.35	556
490.568	596
490.786	578
491.003	597
491.221	652
491.439	618
491.657	619
491.874	644
492.092	628
492.31	646
492.527	627
492.745	639
492.963	659
493.18	654
493.398	633
493.615	653
493.833	675
494.05	650
494.268	646
494.485	647
494.703	651
494.92	663
495.138	666
495.355	675
495.573	669
495.79	643
496.008	673
496.225	675
496.442	672
496.66	668
496.877	651
497.094	652
497.312	665
497.529	677
497.746	655
497.963	685
498.181	715
498.398	700
498.615	709
498.832	723
499.049	733
499.267	739
499.484	731
499.701	758
499.918	769
500.135	811
500.352	842
500.569	851
500.786	852
501.003	855
501.22	822
501.437	826
501.654	812
501.871	799
502.088	771
502.305	774
502.522	722
502.739	715
502.956	700
503.172	668
503.389	713
503.606	682
503.823	694
504.04	691
504.256	697
504.473	655
504.69	676
504.907	637
505.123	641
505.34	625
505.557	619
505.773	625
505.99	637
506.207	623
506.423	630
506.64	661
506.856	618
507.073	617
507.289	628
507.506	611
507.722	631
507.939	650
508.155	641
508.372	621
508.588	593
508.805	599
509.021	627
509.238	618
509.454	643
509.67	611
509.887	625
510.103	659
510.319	650
510.536	706
510.752	1290
510.968	1045
511.184	656
511.401	609
511.617	579
511.833	583
512.049	580
512.265	616
512.481	581
512.698	598
512.914	577
513.13	569
513.346	566
513.562	590
513.778	590
513.994	616
514.21	580
514.426	638
514.642	667
514.858	715
515.074	740
515.29	921
515.506	1411
515.721	1107
515.937	733
516.153	665
516.369	647
516.585	616
516.801	583
517.016	573
517.232	581
517.448	588
517.664	599
517.879	574
518.095	561
518.311	592
518.527	591
518.742	585
518.958	587
519.173	564
519.389	558
519.605	577
519.82	587
520.036	586
520.251	622
520.467	661
520.682	669
520.898	674
521.113	685
521.329	756
521.544	838
521.76	1102
521.975	1875
522.19	1780
522.406	959
522.621	678
522.836	641
523.052	592
523.267	549
523.482	544
523.698	533
523.913	540
524.128	525
524.343	527
524.559	516
524.774	504
524.989	502
525.204	504
525.419	516
525.634	488
525.849	486
526.064	500
526.28	489
526.495	478
526.71	464
526.925	475
527.14	471
527.355	474
527.57	462
527.785	458
527.999	465
528.214	474
528.429	468
528.644	453
528.859	447
529.074	480
529.289	481
529.503	586
529.718	547
529.933	519
530.148	480
530.363	501
530.577	445
530.792	468
531.007	465
531.221	453
531.436	445
531.651	465
531.865	447
532.08	436
532.295	441
532.509	433
532.724	440
532.938	444
533.153	449
533.367	448
533.582	434
533.796	428
534.011	446
534.225	430
534.44	428
534.654	457
534.868	441
535.083	431
535.297	428
535.511	457
535.726	466
535.94	457
536.154	444
536.369	445
536.583	428
536.797	425
537.011	451
537.225	434
537.44	429
537.654	451
537.868	429
538.082	419
538.296	440
538.51	417
538.724	420
538.938	423
539.153	404
539.367	465
539.581	451
539.795	415
540.009	430
540.222	428
540.436	442
540.65	447
540.864	425
541.078	418
541.292	427
541.506	432
541.72	419
541.934	431
542.147	447
542.361	419
542.575	422
542.789	417
543.002	446
543.216	437
543.43	429
543.644	422
543.857	428
544.071	442
544.285	439
544.498	442
544.712	435
544.925	420
545.139	419
545.352	410
545.566	405
545.779	416
545.993	414
546.206	410
546.42	406
546.633	393
546.847	396
547.06	405
547.274	391
547.487	413
547.7	402
547.914	411
548.127	390
548.34	405
548.554	411
548.767	399
548.98	399
549.193	380
549.407	395
549.62	390
549.833	401
550.046	378
550.259	378
550.473	362
550.686	401
550.899	395
551.112	395
551.325	380
551.538	378
551.751	399
551.964	377
552.177	382
552.39	374
552.603	406
552.816	388
553.029	405
553.242	414
553.455	389
553.667	402
553.88	411
554.093	411
554.306	416
554.519	385
554.732	385
554.944	382
555.157	375
555.37	379
555.583	378
555.795	364
556.008	379
556.221	369
556.433	375
556.646	380
556.859	371
557.071	359
557.284	338
557.496	362
557.709	363
557.921	364
558.134	337
558.346	369
558.559	363
558.771	354
558.984	356
559.196	353
559.409	371
559.621	356
559.833	354
560.046	329
560.258	354
560.47	337
560.683	333
560.895	342
561.107	342
561.32	362
561.532	364
561.744	350
561.956	339
562.168	353
562.381	331
562.593	340
562.805	340
563.017	352
563.229	347
563.441	350
563.653	355
563.865	335
564.077	365
564.289	357
564.501	357
564.713	348
564.925	359
565.137	373
565.349	371
565.561	381
565.773	399
565.985	386
566.197	363
566.408	369
566.62	407
566.832	407
567.044	397
567.255	408
567.467	400
567.679	408
567.891	430
568.102	437
568.314	419
568.526	396
568.737	382
568.949	382
569.161	369
569.372	374
569.584	359
569.795	365
570.007	359
570.218	406
570.43	403
570.641	350
570.853	356
571.064	358
571.276	353
571.487	332
571.698	328
571.91	345
572.121	322
572.333	346
572.544	315
572.755	328
572.966	329
573.178	307
573.389	322
573.6	331
573.811	300
574.023	313
574.234	304
574.445	305
574.656	301
574.867	317
575.078	313
575.289	300
575.501	306
575.712	301
575.923	300
576.134	289
576.345	297
576.556	311
576.767	309
576.978	297
577.188	319
577.399	321
577.61	285
577.821	299
578.032	307
578.243	342
578.454	597
578.665	419
578.875	311
579.086	299
579.297	277
579.508	293
579.718	299
579.929	289
580.14	301
580.35	285
580.561	300
580.772	302
580.982	281
581.193	276
581.403	289
581.614	308
581.825	279
582.035	281
582.246	286
582.456	275
582.667	285
582.877	301
583.087	288
583.298	279
583.508	270
583.719	277
583.929	285
584.139	272
584.35	292
584.56	283
584.77	263
584.981	274
585.191	279
585.401	273
585.611	264
585.821	263
586.032	259
586.242	277
586.452	269
586.662	263
586.872	275
587.082	279
587.292	265
587.502	249
587.713	250
587.923	284
588.133	270
588.343	282
588.553	273
588.762	259
588.972	264
589.182	289
589.392	269
589.602	248
589.812	264
590.022	264
590.232	273
590.441	246
590.651	278
590.861	263
591.071	262
591.281	281
591.49	267
591.7	265
591.91	259
592.119	268
592.329	275
592.539	281
592.748	293
592.958	268
593.167	285
593.377	267
593.587	277
593.796	280
594.006	267
594.215	259
594.424	273
594.634	298
594.843	277
595.053	267
595.262	266
595.472	272
595.681	277
595.89	269
596.1	256
596.309	261
596.518	247
596.727	266
596.937	265
597.146	253
597.355	253
597.564	266
597.774	235
597.983	236
598.192	234
598.401	261
598.61	238
598.819	230
599.028	251
599.237	230
599.446	241
599.655	253
599.864	237
600.073	233
600.282	233
600.491	230
600.7	243
600.909	239
601.118	241
601.327	246
601.536	226
601.745	236
601.953	225
602.162	231
602.371	231
602.58	248
602.789	252
602.997	238
603.206	246
603.415	241
603.623	221
603.832	238
604.041	241
604.249	221
604.458	221
604.666	230
604.875	235
605.084	234
605.292	215
605.501	238
605.709	226
605.918	232
606.126	228
606.334	233
606.543	231
606.751	235
606.96	247
607.168	220
607.376	225
607.585	218
607.793	237
608.001	212
608.21	207
608.418	217
608.626	228
608.834	235
609.043	200
609.251	202
609.459	201
609.667	227
609.875	228
610.083	223
610.291	233
610.499	218
610.707	227
610.916	223
611.124	228
611.332	233
611.54	249
611.748	238
611.955	217
612.163	230
612.371	215
612.579	230
612.787	222
612.995	213
613.203	224
613.411	225
613.618	218
613.826	215
614.034	228
614.242	227
614.449	204
614.657	229
614.865	225
615.072	214
615.28	224
615.488	218
615.695	220
615.903	201
616.111	215
616.318	219
616.526	215
616.733	231
616.941	214
617.148	211
617.356	233
617.563	195
617.771	199
617.978	218
618.185	231
618.393	215
618.6	220
618.807	206
619.015	207
619.222	217
619.429	210
619.637	225
619.844	226
620.051	202
620.258	202
620.466	194
620.673	191
620.88	207
621.087	210
621.294	189
621.501	205
621.708	193
621.915	213
622.122	209
622.329	194
622.536	181
622.743	214
622.95	199
623.157	198
623.364	199
623.571	206
623.778	194
623.985	211
624.192	198
624.399	194
624.606	199
624.812	187
625.019	190
625.226	211
625.433	201
625.639	192
625.846	212
626.053	197
626.259	194
626.466	197
626.673	199
626.879	201
627.086	201
627.293	181
627.499	186
627.706	199
627.912	189
628.119	186
628.325	189
628.532	163
628.738	183
628.945	183
629.151	191
629.357	177
629.564	196
629.77	170
629.976	186
630.183	186
630.389	169
630.595	191
630.802	172
631.008	184
631.214	198
631.42	186
631.627	187
631.833	184
632.039	174
632.245	174
632.451	169
632.657	187
632.863	168
633.069	188
633.275	189
633.481	189
633.688	191
633.893	190
634.099	159
634.305	173
634.511	187
634.717	173
634.923	164
635.129	156
635.335	162
635.541	164
635.747	173
635.952	163
636.158	169
636.364	172
636.57	170
636.775	167
636.981	172
637.187	159
637.392	157
637.598	185
637.804	177
638.009	178
638.215	158
638.421	172
638.626	180
638.832	167
639.037	151
639.243	164
639.448	163
639.654	177
639.859	160
640.065	173
640.27	158
640.475	161
640.681	177
640.886	145
641.091	156
641.297	164
641.502	158
641.707	167
641.913	156
642.118	167
642.323	159
642.528	163
642.733	158
642.939	159
643.144	158
643.349	162
643.554	160
643.759	148
643.964	151
644.169	147
644.374	151
644.579	154
644.784	165
644.989	148
645.194	183
645.399	166
645.604	148
645.809	154
646.014	178
646.219	158
646.423	151
646.628	161
646.833	170
647.038	157
647.243	167
647.447	152
647.652	163
647.857	185
648.062	153
648.266	148
648.471	153
648.676	151
648.88	149
649.085	152
649.289	162
649.494	155
649.698	182
649.903	166
650.107	167
650.312	162
650.516	146
650.721	146
650.925	142
651.13	133
651.334	135
651.539	148
651.743	151
651.947	142
652.152	132
652.356	154
652.56	144
652.764	137
652.969	140
653.173	137
653.377	148
653.581	145
653.785	133
653.99	138
654.194	139
654.398	136
654.602	131
654.806	127
655.01	136
655.214	139
655.418	146
655.622	133
655.826	135
656.03	149
656.234	120
656.438	133
656.642	134
656.846	117
657.049	122
657.253	118
657.457	119
657.661	122
657.865	108
658.068	117
658.272	111
658.476	112
658.68	115
658.883	96
659.087	101
659.291	100
659.494	99
659.698	84
659.901	92
660.105	84
660.309	89
660.512	85
660.716	77
660.919	87
661.123	95
661.326	83
661.53	93
661.733	85
661.936	88
662.14	85
662.343	105
662.546	81
662.75	90
662.953	89
663.156	98
663.36	91
663.563	91
663.766	92
663.969	92
664.173	68
664.376	87
664.579	84
664.782	85
664.985	80
665.188	81
665.391	95
665.594	73
665.797	89
666	78
666.203	74
666.406	86
666.609	73
666.812	68
667.015	64
667.218	76
667.421	75
667.624	87
667.827	86
668.03	76
668.232	80
668.435	61
668.638	92
668.841	82
669.043	87
669.246	86
669.449	86
669.651	87
669.854	84
670.057	83
670.259	83
670.462	86
670.665	91
670.867	84
671.07	81
671.272	85
671.475	86
671.677	77
671.88	84
672.082	86
672.284	82
672.487	90
672.689	87
672.892	74
